#T=0 quenches for random K-SAT
#N=102400  alpha=3.9  maxIter=2000000   NSamples=10000
#av(t)	10899.4693
#av(log(t))	9.205761297315327
#std(log(t))	0.004077570676694741
3106.0
3107.0
3193.0
3250.0
3287.0
3317.0
3419.0
3437.0
3505.0
3526.0
3543.0
3569.0
3586.0
3603.0
3607.0
3631.0
3689.0
3705.0
3706.0
3712.0
3727.0
3736.0
3748.0
3785.0
3829.0
3837.0
3840.0
3845.0
3908.0
3935.0
3942.0
3973.0
3982.0
3987.0
3989.0
3992.0
3996.0
4007.0
4013.0
4014.0
4017.0
4035.0
4038.0
4045.0
4062.0
4071.0
4073.0
4073.0
4077.0
4078.0
4095.0
4104.0
4109.0
4129.0
4129.0
4137.0
4141.0
4142.0
4151.0
4159.0
4173.0
4176.0
4178.0
4181.0
4184.0
4188.0
4197.0
4197.0
4206.0
4226.0
4228.0
4229.0
4238.0
4240.0
4242.0
4242.0
4248.0
4263.0
4274.0
4284.0
4289.0
4291.0
4291.0
4302.0
4304.0
4314.0
4319.0
4322.0
4322.0
4326.0
4333.0
4335.0
4335.0
4346.0
4348.0
4349.0
4353.0
4359.0
4365.0
4367.0
4368.0
4376.0
4385.0
4393.0
4397.0
4406.0
4406.0
4407.0
4413.0
4420.0
4424.0
4428.0
4429.0
4429.0
4439.0
4442.0
4448.0
4463.0
4465.0
4470.0
4485.0
4486.0
4487.0
4495.0
4495.0
4496.0
4497.0
4502.0
4503.0
4509.0
4510.0
4517.0
4531.0
4534.0
4539.0
4541.0
4541.0
4544.0
4557.0
4558.0
4562.0
4567.0
4569.0
4572.0
4573.0
4576.0
4576.0
4576.0
4583.0
4584.0
4598.0
4598.0
4600.0
4611.0
4613.0
4613.0
4617.0
4621.0
4621.0
4624.0
4626.0
4627.0
4637.0
4637.0
4640.0
4645.0
4650.0
4655.0
4658.0
4659.0
4660.0
4661.0
4661.0
4669.0
4672.0
4673.0
4677.0
4680.0
4681.0
4682.0
4689.0
4694.0
4702.0
4706.0
4714.0
4715.0
4717.0
4717.0
4719.0
4719.0
4724.0
4729.0
4733.0
4738.0
4739.0
4739.0
4744.0
4747.0
4749.0
4750.0
4755.0
4755.0
4756.0
4761.0
4769.0
4775.0
4775.0
4779.0
4785.0
4786.0
4786.0
4795.0
4803.0
4809.0
4810.0
4811.0
4813.0
4817.0
4820.0
4822.0
4822.0
4826.0
4827.0
4837.0
4838.0
4843.0
4843.0
4844.0
4845.0
4845.0
4855.0
4857.0
4859.0
4860.0
4863.0
4866.0
4867.0
4870.0
4870.0
4872.0
4874.0
4878.0
4885.0
4887.0
4890.0
4891.0
4895.0
4895.0
4904.0
4909.0
4910.0
4914.0
4917.0
4920.0
4924.0
4925.0
4926.0
4930.0
4930.0
4931.0
4932.0
4934.0
4934.0
4935.0
4939.0
4941.0
4942.0
4950.0
4956.0
4958.0
4960.0
4963.0
4964.0
4964.0
4965.0
4965.0
4967.0
4967.0
4968.0
4969.0
4970.0
4975.0
4977.0
4977.0
4981.0
4981.0
4984.0
4985.0
4986.0
4987.0
4989.0
4991.0
4994.0
4994.0
4997.0
5001.0
5001.0
5001.0
5003.0
5003.0
5005.0
5006.0
5006.0
5007.0
5008.0
5013.0
5015.0
5021.0
5025.0
5025.0
5027.0
5028.0
5028.0
5028.0
5029.0
5029.0
5030.0
5031.0
5042.0
5042.0
5042.0
5047.0
5051.0
5052.0
5054.0
5058.0
5061.0
5065.0
5068.0
5069.0
5071.0
5074.0
5082.0
5083.0
5084.0
5084.0
5085.0
5090.0
5096.0
5096.0
5100.0
5104.0
5105.0
5105.0
5105.0
5109.0
5111.0
5112.0
5114.0
5116.0
5117.0
5117.0
5119.0
5120.0
5121.0
5124.0
5124.0
5124.0
5124.0
5128.0
5129.0
5130.0
5130.0
5132.0
5135.0
5136.0
5137.0
5138.0
5138.0
5138.0
5139.0
5140.0
5142.0
5143.0
5145.0
5146.0
5149.0
5149.0
5150.0
5153.0
5155.0
5157.0
5161.0
5165.0
5169.0
5172.0
5175.0
5176.0
5179.0
5179.0
5180.0
5181.0
5185.0
5187.0
5189.0
5193.0
5195.0
5198.0
5199.0
5202.0
5206.0
5207.0
5207.0
5211.0
5215.0
5221.0
5221.0
5222.0
5222.0
5225.0
5226.0
5231.0
5237.0
5238.0
5239.0
5240.0
5240.0
5241.0
5242.0
5245.0
5245.0
5250.0
5253.0
5256.0
5256.0
5258.0
5269.0
5271.0
5271.0
5274.0
5274.0
5275.0
5275.0
5275.0
5276.0
5277.0
5277.0
5281.0
5283.0
5283.0
5284.0
5285.0
5288.0
5288.0
5289.0
5291.0
5296.0
5300.0
5309.0
5309.0
5313.0
5314.0
5314.0
5318.0
5320.0
5323.0
5323.0
5325.0
5325.0
5326.0
5330.0
5333.0
5336.0
5344.0
5345.0
5346.0
5349.0
5349.0
5349.0
5354.0
5354.0
5354.0
5355.0
5357.0
5357.0
5359.0
5360.0
5361.0
5361.0
5364.0
5364.0
5366.0
5366.0
5367.0
5369.0
5371.0
5374.0
5374.0
5377.0
5380.0
5380.0
5384.0
5385.0
5386.0
5386.0
5387.0
5388.0
5388.0
5390.0
5392.0
5394.0
5394.0
5397.0
5398.0
5398.0
5399.0
5399.0
5400.0
5402.0
5403.0
5406.0
5407.0
5410.0
5413.0
5413.0
5413.0
5413.0
5414.0
5414.0
5416.0
5417.0
5418.0
5418.0
5418.0
5421.0
5423.0
5425.0
5427.0
5428.0
5429.0
5429.0
5433.0
5433.0
5434.0
5439.0
5439.0
5440.0
5441.0
5441.0
5446.0
5446.0
5451.0
5451.0
5451.0
5455.0
5457.0
5458.0
5459.0
5462.0
5465.0
5466.0
5471.0
5472.0
5473.0
5478.0
5479.0
5481.0
5482.0
5484.0
5485.0
5486.0
5488.0
5490.0
5490.0
5490.0
5491.0
5496.0
5497.0
5497.0
5498.0
5498.0
5499.0
5500.0
5502.0
5504.0
5509.0
5509.0
5514.0
5516.0
5516.0
5518.0
5520.0
5523.0
5524.0
5525.0
5526.0
5526.0
5531.0
5531.0
5533.0
5533.0
5535.0
5536.0
5537.0
5543.0
5544.0
5545.0
5547.0
5548.0
5548.0
5548.0
5551.0
5555.0
5556.0
5560.0
5564.0
5564.0
5564.0
5566.0
5569.0
5571.0
5575.0
5575.0
5576.0
5577.0
5579.0
5584.0
5585.0
5590.0
5591.0
5592.0
5594.0
5595.0
5595.0
5596.0
5596.0
5598.0
5600.0
5604.0
5604.0
5604.0
5605.0
5605.0
5607.0
5609.0
5609.0
5610.0
5610.0
5611.0
5611.0
5611.0
5612.0
5615.0
5616.0
5616.0
5617.0
5619.0
5620.0
5620.0
5620.0
5622.0
5622.0
5627.0
5628.0
5631.0
5632.0
5635.0
5636.0
5638.0
5640.0
5645.0
5645.0
5646.0
5647.0
5658.0
5660.0
5661.0
5661.0
5662.0
5664.0
5669.0
5669.0
5675.0
5676.0
5677.0
5678.0
5680.0
5680.0
5681.0
5681.0
5681.0
5681.0
5682.0
5682.0
5684.0
5685.0
5688.0
5689.0
5690.0
5691.0
5692.0
5692.0
5694.0
5698.0
5701.0
5702.0
5702.0
5704.0
5706.0
5706.0
5707.0
5707.0
5708.0
5710.0
5712.0
5713.0
5714.0
5718.0
5719.0
5720.0
5723.0
5730.0
5731.0
5732.0
5732.0
5733.0
5733.0
5734.0
5737.0
5741.0
5742.0
5743.0
5745.0
5746.0
5747.0
5747.0
5747.0
5750.0
5751.0
5753.0
5756.0
5758.0
5758.0
5760.0
5763.0
5771.0
5771.0
5772.0
5773.0
5774.0
5778.0
5778.0
5779.0
5781.0
5782.0
5785.0
5785.0
5785.0
5788.0
5788.0
5788.0
5790.0
5790.0
5791.0
5792.0
5794.0
5797.0
5799.0
5799.0
5800.0
5801.0
5801.0
5806.0
5808.0
5808.0
5810.0
5811.0
5812.0
5814.0
5814.0
5815.0
5816.0
5816.0
5817.0
5818.0
5819.0
5822.0
5822.0
5822.0
5823.0
5823.0
5824.0
5825.0
5825.0
5827.0
5829.0
5829.0
5830.0
5831.0
5832.0
5833.0
5834.0
5834.0
5835.0
5836.0
5836.0
5837.0
5837.0
5838.0
5838.0
5838.0
5838.0
5840.0
5842.0
5847.0
5850.0
5851.0
5852.0
5855.0
5858.0
5858.0
5858.0
5859.0
5860.0
5860.0
5860.0
5862.0
5863.0
5865.0
5865.0
5866.0
5868.0
5871.0
5871.0
5874.0
5879.0
5879.0
5879.0
5879.0
5881.0
5882.0
5885.0
5887.0
5887.0
5887.0
5889.0
5891.0
5893.0
5894.0
5894.0
5894.0
5894.0
5895.0
5896.0
5896.0
5898.0
5899.0
5899.0
5902.0
5906.0
5907.0
5911.0
5911.0
5911.0
5912.0
5912.0
5912.0
5913.0
5913.0
5914.0
5917.0
5917.0
5917.0
5917.0
5918.0
5924.0
5925.0
5925.0
5926.0
5926.0
5927.0
5927.0
5928.0
5928.0
5929.0
5930.0
5930.0
5932.0
5934.0
5936.0
5938.0
5939.0
5940.0
5942.0
5942.0
5943.0
5943.0
5944.0
5944.0
5944.0
5945.0
5947.0
5948.0
5951.0
5951.0
5954.0
5955.0
5956.0
5959.0
5961.0
5963.0
5965.0
5965.0
5965.0
5967.0
5967.0
5969.0
5971.0
5971.0
5974.0
5974.0
5974.0
5975.0
5975.0
5975.0
5975.0
5979.0
5980.0
5980.0
5984.0
5985.0
5988.0
5988.0
5988.0
5989.0
5990.0
5990.0
5991.0
5992.0
5993.0
5993.0
5993.0
5996.0
5996.0
5997.0
5998.0
5999.0
6001.0
6002.0
6004.0
6007.0
6008.0
6009.0
6010.0
6011.0
6015.0
6018.0
6018.0
6019.0
6020.0
6021.0
6024.0
6025.0
6025.0
6025.0
6027.0
6027.0
6028.0
6029.0
6030.0
6031.0
6031.0
6033.0
6033.0
6035.0
6037.0
6041.0
6041.0
6041.0
6045.0
6045.0
6046.0
6046.0
6047.0
6049.0
6051.0
6052.0
6053.0
6054.0
6055.0
6056.0
6057.0
6057.0
6057.0
6059.0
6060.0
6060.0
6063.0
6064.0
6064.0
6065.0
6065.0
6067.0
6068.0
6071.0
6072.0
6073.0
6074.0
6076.0
6076.0
6077.0
6077.0
6079.0
6079.0
6081.0
6082.0
6085.0
6085.0
6087.0
6088.0
6090.0
6090.0
6090.0
6090.0
6092.0
6092.0
6092.0
6095.0
6096.0
6097.0
6098.0
6099.0
6101.0
6103.0
6105.0
6109.0
6109.0
6109.0
6112.0
6112.0
6113.0
6113.0
6114.0
6115.0
6115.0
6116.0
6116.0
6117.0
6117.0
6118.0
6119.0
6122.0
6123.0
6125.0
6127.0
6128.0
6129.0
6130.0
6131.0
6133.0
6133.0
6133.0
6135.0
6137.0
6139.0
6141.0
6142.0
6142.0
6142.0
6144.0
6145.0
6147.0
6150.0
6152.0
6152.0
6155.0
6156.0
6156.0
6157.0
6158.0
6158.0
6161.0
6161.0
6163.0
6163.0
6163.0
6165.0
6167.0
6167.0
6167.0
6169.0
6169.0
6169.0
6173.0
6174.0
6174.0
6175.0
6177.0
6177.0
6179.0
6181.0
6182.0
6184.0
6184.0
6184.0
6184.0
6186.0
6186.0
6188.0
6189.0
6189.0
6190.0
6190.0
6192.0
6192.0
6194.0
6194.0
6195.0
6195.0
6195.0
6195.0
6198.0
6198.0
6201.0
6201.0
6202.0
6202.0
6203.0
6203.0
6205.0
6206.0
6206.0
6207.0
6207.0
6208.0
6210.0
6210.0
6211.0
6212.0
6213.0
6213.0
6214.0
6214.0
6216.0
6216.0
6216.0
6219.0
6219.0
6219.0
6219.0
6221.0
6222.0
6222.0
6222.0
6223.0
6225.0
6225.0
6227.0
6227.0
6227.0
6229.0
6229.0
6230.0
6234.0
6235.0
6235.0
6236.0
6236.0
6236.0
6237.0
6239.0
6239.0
6241.0
6243.0
6244.0
6246.0
6249.0
6249.0
6251.0
6252.0
6253.0
6255.0
6258.0
6262.0
6263.0
6264.0
6265.0
6267.0
6268.0
6268.0
6268.0
6268.0
6270.0
6272.0
6272.0
6273.0
6273.0
6273.0
6275.0
6275.0
6277.0
6277.0
6278.0
6279.0
6279.0
6280.0
6281.0
6284.0
6285.0
6286.0
6286.0
6287.0
6288.0
6288.0
6289.0
6290.0
6290.0
6291.0
6291.0
6292.0
6293.0
6295.0
6295.0
6296.0
6296.0
6297.0
6297.0
6298.0
6300.0
6300.0
6302.0
6303.0
6306.0
6307.0
6309.0
6310.0
6310.0
6310.0
6311.0
6313.0
6313.0
6313.0
6314.0
6315.0
6317.0
6318.0
6320.0
6321.0
6326.0
6328.0
6329.0
6332.0
6333.0
6337.0
6337.0
6338.0
6338.0
6339.0
6339.0
6340.0
6341.0
6341.0
6343.0
6343.0
6343.0
6344.0
6346.0
6348.0
6348.0
6349.0
6349.0
6350.0
6350.0
6350.0
6350.0
6350.0
6351.0
6353.0
6357.0
6358.0
6359.0
6361.0
6361.0
6364.0
6364.0
6365.0
6365.0
6366.0
6367.0
6367.0
6368.0
6369.0
6369.0
6369.0
6369.0
6370.0
6374.0
6375.0
6376.0
6376.0
6376.0
6376.0
6377.0
6379.0
6380.0
6380.0
6382.0
6384.0
6384.0
6386.0
6387.0
6389.0
6390.0
6390.0
6391.0
6392.0
6392.0
6394.0
6394.0
6395.0
6397.0
6398.0
6398.0
6399.0
6400.0
6400.0
6405.0
6405.0
6406.0
6406.0
6408.0
6412.0
6413.0
6413.0
6413.0
6413.0
6414.0
6415.0
6415.0
6423.0
6425.0
6425.0
6427.0
6428.0
6428.0
6430.0
6431.0
6432.0
6433.0
6434.0
6435.0
6439.0
6440.0
6440.0
6442.0
6443.0
6445.0
6448.0
6448.0
6449.0
6450.0
6450.0
6451.0
6452.0
6453.0
6453.0
6456.0
6457.0
6458.0
6459.0
6463.0
6464.0
6465.0
6466.0
6470.0
6470.0
6471.0
6474.0
6474.0
6475.0
6475.0
6478.0
6483.0
6485.0
6486.0
6487.0
6487.0
6488.0
6488.0
6491.0
6494.0
6498.0
6498.0
6499.0
6499.0
6501.0
6501.0
6502.0
6504.0
6504.0
6507.0
6507.0
6507.0
6508.0
6511.0
6511.0
6512.0
6515.0
6519.0
6519.0
6520.0
6522.0
6525.0
6527.0
6531.0
6534.0
6535.0
6538.0
6538.0
6539.0
6544.0
6546.0
6547.0
6548.0
6553.0
6554.0
6554.0
6554.0
6555.0
6556.0
6557.0
6558.0
6558.0
6561.0
6562.0
6562.0
6563.0
6563.0
6563.0
6565.0
6567.0
6569.0
6569.0
6572.0
6572.0
6575.0
6575.0
6576.0
6576.0
6576.0
6577.0
6577.0
6578.0
6579.0
6582.0
6582.0
6582.0
6583.0
6584.0
6584.0
6584.0
6585.0
6587.0
6588.0
6592.0
6592.0
6592.0
6593.0
6593.0
6594.0
6594.0
6595.0
6596.0
6597.0
6597.0
6598.0
6600.0
6600.0
6603.0
6604.0
6606.0
6607.0
6611.0
6612.0
6612.0
6614.0
6616.0
6617.0
6617.0
6619.0
6622.0
6624.0
6624.0
6625.0
6625.0
6626.0
6626.0
6628.0
6628.0
6629.0
6634.0
6635.0
6635.0
6637.0
6638.0
6638.0
6639.0
6639.0
6645.0
6645.0
6645.0
6646.0
6646.0
6647.0
6649.0
6649.0
6650.0
6651.0
6652.0
6653.0
6656.0
6657.0
6657.0
6657.0
6657.0
6658.0
6659.0
6661.0
6662.0
6662.0
6664.0
6665.0
6666.0
6666.0
6667.0
6667.0
6668.0
6669.0
6669.0
6670.0
6670.0
6670.0
6671.0
6673.0
6673.0
6673.0
6674.0
6674.0
6674.0
6675.0
6675.0
6677.0
6678.0
6679.0
6680.0
6682.0
6683.0
6684.0
6684.0
6686.0
6686.0
6686.0
6686.0
6688.0
6692.0
6693.0
6694.0
6696.0
6696.0
6696.0
6697.0
6697.0
6701.0
6701.0
6703.0
6704.0
6704.0
6707.0
6708.0
6710.0
6710.0
6711.0
6715.0
6715.0
6715.0
6716.0
6716.0
6716.0
6717.0
6718.0
6718.0
6719.0
6720.0
6720.0
6724.0
6724.0
6725.0
6725.0
6726.0
6727.0
6728.0
6728.0
6729.0
6729.0
6732.0
6732.0
6734.0
6734.0
6735.0
6735.0
6735.0
6736.0
6737.0
6738.0
6740.0
6740.0
6741.0
6741.0
6741.0
6743.0
6743.0
6745.0
6745.0
6745.0
6747.0
6747.0
6748.0
6749.0
6750.0
6751.0
6752.0
6752.0
6752.0
6753.0
6754.0
6754.0
6756.0
6757.0
6758.0
6758.0
6758.0
6759.0
6759.0
6760.0
6760.0
6760.0
6760.0
6761.0
6764.0
6765.0
6767.0
6767.0
6767.0
6768.0
6775.0
6776.0
6776.0
6777.0
6778.0
6779.0
6781.0
6781.0
6781.0
6781.0
6782.0
6785.0
6785.0
6785.0
6785.0
6786.0
6787.0
6787.0
6788.0
6790.0
6790.0
6790.0
6790.0
6791.0
6798.0
6800.0
6800.0
6804.0
6807.0
6808.0
6808.0
6810.0
6810.0
6811.0
6813.0
6814.0
6814.0
6814.0
6815.0
6816.0
6816.0
6818.0
6818.0
6818.0
6819.0
6819.0
6820.0
6821.0
6822.0
6822.0
6823.0
6823.0
6823.0
6824.0
6825.0
6827.0
6828.0
6828.0
6829.0
6830.0
6831.0
6835.0
6836.0
6837.0
6837.0
6838.0
6841.0
6843.0
6844.0
6845.0
6846.0
6846.0
6846.0
6850.0
6850.0
6851.0
6852.0
6853.0
6853.0
6853.0
6854.0
6854.0
6858.0
6858.0
6858.0
6860.0
6861.0
6861.0
6862.0
6865.0
6865.0
6865.0
6868.0
6868.0
6869.0
6869.0
6870.0
6870.0
6873.0
6874.0
6874.0
6874.0
6875.0
6876.0
6876.0
6877.0
6879.0
6880.0
6880.0
6880.0
6880.0
6881.0
6881.0
6882.0
6882.0
6883.0
6883.0
6883.0
6883.0
6884.0
6885.0
6888.0
6893.0
6893.0
6894.0
6896.0
6896.0
6897.0
6897.0
6898.0
6899.0
6901.0
6903.0
6905.0
6905.0
6905.0
6906.0
6907.0
6908.0
6908.0
6908.0
6909.0
6910.0
6911.0
6911.0
6912.0
6913.0
6914.0
6915.0
6916.0
6916.0
6916.0
6917.0
6917.0
6917.0
6918.0
6919.0
6919.0
6921.0
6921.0
6922.0
6923.0
6924.0
6924.0
6926.0
6926.0
6929.0
6930.0
6931.0
6934.0
6934.0
6935.0
6936.0
6938.0
6939.0
6940.0
6940.0
6941.0
6941.0
6942.0
6942.0
6943.0
6944.0
6944.0
6947.0
6948.0
6948.0
6949.0
6951.0
6953.0
6954.0
6954.0
6954.0
6954.0
6958.0
6958.0
6961.0
6961.0
6961.0
6962.0
6963.0
6963.0
6964.0
6964.0
6965.0
6966.0
6969.0
6970.0
6970.0
6970.0
6971.0
6971.0
6972.0
6973.0
6973.0
6973.0
6973.0
6975.0
6979.0
6979.0
6979.0
6981.0
6981.0
6981.0
6982.0
6983.0
6983.0
6984.0
6985.0
6986.0
6986.0
6987.0
6989.0
6990.0
6991.0
6991.0
6991.0
6993.0
6994.0
6994.0
6997.0
6999.0
6999.0
7000.0
7000.0
7002.0
7003.0
7005.0
7005.0
7006.0
7006.0
7006.0
7006.0
7007.0
7008.0
7008.0
7008.0
7010.0
7011.0
7012.0
7013.0
7014.0
7015.0
7015.0
7015.0
7016.0
7017.0
7017.0
7017.0
7018.0
7020.0
7021.0
7023.0
7023.0
7025.0
7025.0
7027.0
7028.0
7028.0
7028.0
7028.0
7029.0
7029.0
7029.0
7030.0
7031.0
7031.0
7031.0
7032.0
7033.0
7033.0
7038.0
7041.0
7042.0
7042.0
7043.0
7045.0
7045.0
7045.0
7045.0
7046.0
7046.0
7047.0
7049.0
7050.0
7051.0
7052.0
7053.0
7054.0
7054.0
7054.0
7058.0
7059.0
7060.0
7061.0
7062.0
7062.0
7063.0
7063.0
7063.0
7063.0
7063.0
7063.0
7065.0
7065.0
7066.0
7066.0
7066.0
7066.0
7066.0
7068.0
7068.0
7068.0
7069.0
7070.0
7072.0
7073.0
7074.0
7074.0
7075.0
7078.0
7079.0
7080.0
7081.0
7081.0
7081.0
7082.0
7082.0
7083.0
7084.0
7086.0
7086.0
7086.0
7088.0
7088.0
7089.0
7089.0
7090.0
7092.0
7094.0
7095.0
7097.0
7098.0
7099.0
7100.0
7101.0
7101.0
7101.0
7103.0
7103.0
7105.0
7107.0
7107.0
7109.0
7109.0
7113.0
7114.0
7114.0
7114.0
7115.0
7115.0
7116.0
7116.0
7117.0
7117.0
7118.0
7118.0
7118.0
7118.0
7119.0
7120.0
7121.0
7122.0
7123.0
7123.0
7124.0
7125.0
7126.0
7127.0
7127.0
7128.0
7129.0
7130.0
7130.0
7134.0
7135.0
7136.0
7136.0
7138.0
7138.0
7139.0
7139.0
7139.0
7140.0
7141.0
7141.0
7141.0
7141.0
7142.0
7144.0
7144.0
7144.0
7147.0
7147.0
7148.0
7149.0
7149.0
7151.0
7152.0
7152.0
7152.0
7156.0
7159.0
7159.0
7160.0
7161.0
7161.0
7163.0
7164.0
7165.0
7165.0
7166.0
7167.0
7169.0
7169.0
7169.0
7169.0
7170.0
7170.0
7171.0
7172.0
7173.0
7174.0
7175.0
7175.0
7176.0
7176.0
7176.0
7178.0
7179.0
7181.0
7183.0
7183.0
7183.0
7183.0
7183.0
7184.0
7184.0
7185.0
7185.0
7185.0
7187.0
7187.0
7188.0
7188.0
7189.0
7189.0
7191.0
7191.0
7192.0
7193.0
7193.0
7194.0
7195.0
7195.0
7195.0
7195.0
7196.0
7197.0
7199.0
7199.0
7201.0
7202.0
7203.0
7204.0
7204.0
7206.0
7206.0
7206.0
7209.0
7209.0
7210.0
7210.0
7210.0
7211.0
7212.0
7213.0
7213.0
7213.0
7215.0
7217.0
7219.0
7220.0
7223.0
7224.0
7226.0
7226.0
7226.0
7228.0
7229.0
7230.0
7231.0
7232.0
7233.0
7236.0
7237.0
7239.0
7240.0
7242.0
7242.0
7243.0
7243.0
7244.0
7244.0
7245.0
7246.0
7246.0
7247.0
7248.0
7248.0
7250.0
7251.0
7252.0
7252.0
7253.0
7254.0
7254.0
7255.0
7258.0
7258.0
7260.0
7260.0
7261.0
7263.0
7266.0
7266.0
7267.0
7269.0
7270.0
7271.0
7273.0
7273.0
7279.0
7280.0
7280.0
7280.0
7280.0
7280.0
7281.0
7282.0
7283.0
7284.0
7284.0
7284.0
7284.0
7286.0
7288.0
7288.0
7289.0
7290.0
7292.0
7293.0
7295.0
7295.0
7298.0
7299.0
7300.0
7300.0
7303.0
7305.0
7307.0
7307.0
7307.0
7308.0
7308.0
7309.0
7309.0
7309.0
7311.0
7311.0
7311.0
7313.0
7314.0
7315.0
7318.0
7322.0
7322.0
7322.0
7323.0
7323.0
7325.0
7328.0
7328.0
7328.0
7329.0
7329.0
7332.0
7333.0
7334.0
7335.0
7335.0
7337.0
7338.0
7338.0
7338.0
7338.0
7338.0
7339.0
7340.0
7341.0
7341.0
7344.0
7345.0
7346.0
7346.0
7346.0
7347.0
7347.0
7348.0
7349.0
7349.0
7350.0
7351.0
7351.0
7351.0
7352.0
7352.0
7353.0
7356.0
7357.0
7357.0
7357.0
7358.0
7359.0
7359.0
7359.0
7360.0
7361.0
7362.0
7363.0
7363.0
7363.0
7365.0
7365.0
7369.0
7369.0
7370.0
7370.0
7371.0
7372.0
7373.0
7373.0
7373.0
7376.0
7377.0
7379.0
7380.0
7381.0
7382.0
7383.0
7384.0
7384.0
7385.0
7387.0
7388.0
7390.0
7391.0
7391.0
7392.0
7393.0
7394.0
7394.0
7395.0
7395.0
7396.0
7397.0
7398.0
7399.0
7399.0
7402.0
7402.0
7402.0
7404.0
7404.0
7405.0
7407.0
7409.0
7409.0
7410.0
7410.0
7411.0
7411.0
7411.0
7412.0
7413.0
7415.0
7415.0
7418.0
7419.0
7420.0
7420.0
7421.0
7421.0
7422.0
7423.0
7424.0
7425.0
7425.0
7426.0
7426.0
7430.0
7430.0
7430.0
7432.0
7432.0
7433.0
7434.0
7436.0
7436.0
7437.0
7438.0
7439.0
7441.0
7441.0
7442.0
7442.0
7443.0
7444.0
7444.0
7444.0
7444.0
7444.0
7446.0
7446.0
7450.0
7451.0
7452.0
7453.0
7454.0
7454.0
7454.0
7456.0
7457.0
7458.0
7459.0
7459.0
7459.0
7459.0
7461.0
7463.0
7463.0
7465.0
7466.0
7468.0
7468.0
7468.0
7469.0
7469.0
7470.0
7470.0
7471.0
7472.0
7472.0
7473.0
7474.0
7474.0
7475.0
7475.0
7477.0
7477.0
7477.0
7479.0
7479.0
7481.0
7484.0
7485.0
7486.0
7487.0
7488.0
7488.0
7489.0
7489.0
7490.0
7491.0
7492.0
7492.0
7493.0
7494.0
7495.0
7496.0
7497.0
7497.0
7498.0
7499.0
7500.0
7500.0
7501.0
7502.0
7503.0
7505.0
7512.0
7513.0
7514.0
7515.0
7517.0
7518.0
7519.0
7519.0
7520.0
7521.0
7522.0
7522.0
7522.0
7522.0
7523.0
7523.0
7524.0
7525.0
7525.0
7525.0
7527.0
7527.0
7529.0
7531.0
7533.0
7533.0
7534.0
7534.0
7536.0
7536.0
7536.0
7536.0
7537.0
7538.0
7539.0
7539.0
7540.0
7540.0
7540.0
7542.0
7543.0
7543.0
7543.0
7544.0
7546.0
7546.0
7547.0
7547.0
7548.0
7549.0
7550.0
7551.0
7551.0
7551.0
7552.0
7555.0
7555.0
7557.0
7558.0
7558.0
7559.0
7559.0
7559.0
7560.0
7561.0
7561.0
7561.0
7561.0
7561.0
7563.0
7564.0
7564.0
7565.0
7565.0
7567.0
7567.0
7567.0
7568.0
7569.0
7570.0
7570.0
7573.0
7573.0
7574.0
7576.0
7578.0
7578.0
7578.0
7579.0
7580.0
7581.0
7581.0
7581.0
7583.0
7583.0
7583.0
7584.0
7585.0
7585.0
7585.0
7587.0
7587.0
7589.0
7589.0
7590.0
7590.0
7591.0
7592.0
7592.0
7593.0
7593.0
7593.0
7594.0
7595.0
7596.0
7600.0
7600.0
7600.0
7600.0
7601.0
7602.0
7603.0
7604.0
7605.0
7606.0
7607.0
7607.0
7607.0
7608.0
7611.0
7612.0
7612.0
7613.0
7613.0
7614.0
7614.0
7615.0
7616.0
7616.0
7618.0
7619.0
7620.0
7620.0
7621.0
7621.0
7621.0
7622.0
7622.0
7623.0
7623.0
7623.0
7624.0
7626.0
7627.0
7629.0
7629.0
7631.0
7631.0
7631.0
7633.0
7635.0
7635.0
7636.0
7636.0
7636.0
7636.0
7637.0
7638.0
7639.0
7639.0
7639.0
7640.0
7640.0
7640.0
7640.0
7641.0
7642.0
7643.0
7645.0
7647.0
7647.0
7648.0
7649.0
7649.0
7650.0
7650.0
7650.0
7651.0
7654.0
7655.0
7655.0
7656.0
7656.0
7656.0
7656.0
7656.0
7656.0
7658.0
7658.0
7658.0
7659.0
7659.0
7659.0
7659.0
7661.0
7662.0
7662.0
7664.0
7664.0
7665.0
7665.0
7665.0
7666.0
7667.0
7667.0
7668.0
7668.0
7668.0
7669.0
7669.0
7669.0
7669.0
7674.0
7675.0
7675.0
7677.0
7678.0
7678.0
7679.0
7681.0
7682.0
7683.0
7683.0
7683.0
7684.0
7685.0
7685.0
7685.0
7686.0
7686.0
7687.0
7687.0
7688.0
7688.0
7688.0
7689.0
7690.0
7690.0
7690.0
7690.0
7690.0
7694.0
7695.0
7695.0
7696.0
7696.0
7697.0
7698.0
7698.0
7699.0
7700.0
7701.0
7703.0
7703.0
7703.0
7705.0
7706.0
7706.0
7709.0
7710.0
7711.0
7712.0
7712.0
7712.0
7713.0
7713.0
7713.0
7713.0
7718.0
7718.0
7719.0
7720.0
7721.0
7721.0
7722.0
7722.0
7722.0
7722.0
7724.0
7725.0
7725.0
7725.0
7726.0
7727.0
7728.0
7728.0
7729.0
7729.0
7730.0
7730.0
7731.0
7732.0
7732.0
7732.0
7732.0
7733.0
7733.0
7733.0
7733.0
7733.0
7734.0
7734.0
7734.0
7737.0
7737.0
7737.0
7738.0
7741.0
7741.0
7744.0
7744.0
7746.0
7747.0
7748.0
7748.0
7749.0
7749.0
7750.0
7750.0
7750.0
7750.0
7751.0
7751.0
7751.0
7751.0
7752.0
7753.0
7755.0
7756.0
7757.0
7757.0
7757.0
7762.0
7763.0
7764.0
7764.0
7764.0
7765.0
7766.0
7767.0
7768.0
7768.0
7769.0
7770.0
7771.0
7771.0
7772.0
7772.0
7772.0
7774.0
7774.0
7775.0
7775.0
7775.0
7777.0
7778.0
7779.0
7780.0
7780.0
7780.0
7781.0
7782.0
7783.0
7783.0
7784.0
7785.0
7785.0
7787.0
7788.0
7789.0
7789.0
7790.0
7790.0
7791.0
7791.0
7795.0
7795.0
7795.0
7796.0
7796.0
7797.0
7798.0
7799.0
7799.0
7799.0
7800.0
7801.0
7801.0
7804.0
7806.0
7808.0
7810.0
7810.0
7810.0
7811.0
7811.0
7812.0
7813.0
7813.0
7814.0
7818.0
7819.0
7820.0
7820.0
7821.0
7821.0
7821.0
7822.0
7823.0
7823.0
7823.0
7824.0
7824.0
7824.0
7825.0
7825.0
7825.0
7825.0
7826.0
7827.0
7828.0
7829.0
7830.0
7830.0
7831.0
7832.0
7832.0
7832.0
7836.0
7836.0
7836.0
7836.0
7837.0
7838.0
7838.0
7838.0
7839.0
7839.0
7840.0
7843.0
7843.0
7844.0
7845.0
7846.0
7847.0
7848.0
7850.0
7850.0
7850.0
7850.0
7851.0
7851.0
7851.0
7853.0
7853.0
7853.0
7854.0
7854.0
7854.0
7855.0
7857.0
7861.0
7862.0
7864.0
7864.0
7864.0
7865.0
7865.0
7865.0
7866.0
7866.0
7866.0
7866.0
7866.0
7868.0
7870.0
7870.0
7870.0
7870.0
7872.0
7873.0
7875.0
7875.0
7877.0
7878.0
7879.0
7880.0
7881.0
7881.0
7883.0
7884.0
7884.0
7884.0
7885.0
7885.0
7886.0
7886.0
7889.0
7889.0
7891.0
7893.0
7894.0
7895.0
7895.0
7895.0
7896.0
7896.0
7896.0
7896.0
7897.0
7898.0
7898.0
7898.0
7899.0
7902.0
7903.0
7903.0
7903.0
7905.0
7906.0
7906.0
7909.0
7909.0
7911.0
7911.0
7911.0
7911.0
7911.0
7912.0
7913.0
7914.0
7915.0
7915.0
7916.0
7916.0
7916.0
7917.0
7920.0
7923.0
7926.0
7929.0
7930.0
7932.0
7934.0
7935.0
7936.0
7939.0
7939.0
7939.0
7940.0
7942.0
7942.0
7943.0
7944.0
7944.0
7945.0
7945.0
7945.0
7948.0
7950.0
7951.0
7951.0
7951.0
7951.0
7952.0
7953.0
7954.0
7954.0
7955.0
7955.0
7961.0
7961.0
7962.0
7963.0
7964.0
7966.0
7967.0
7968.0
7968.0
7968.0
7968.0
7969.0
7970.0
7970.0
7971.0
7971.0
7972.0
7972.0
7973.0
7974.0
7974.0
7974.0
7976.0
7976.0
7978.0
7980.0
7981.0
7983.0
7983.0
7984.0
7985.0
7986.0
7987.0
7988.0
7988.0
7989.0
7990.0
7991.0
7991.0
7991.0
7992.0
7995.0
7995.0
7996.0
7996.0
8000.0
8001.0
8002.0
8002.0
8005.0
8005.0
8005.0
8007.0
8008.0
8008.0
8009.0
8009.0
8009.0
8009.0
8010.0
8011.0
8013.0
8014.0
8015.0
8015.0
8015.0
8017.0
8017.0
8017.0
8017.0
8018.0
8021.0
8022.0
8023.0
8024.0
8024.0
8026.0
8026.0
8026.0
8027.0
8027.0
8027.0
8027.0
8028.0
8029.0
8029.0
8030.0
8031.0
8031.0
8031.0
8033.0
8033.0
8034.0
8035.0
8035.0
8036.0
8038.0
8039.0
8039.0
8040.0
8041.0
8041.0
8042.0
8043.0
8043.0
8045.0
8046.0
8046.0
8046.0
8049.0
8051.0
8051.0
8052.0
8052.0
8053.0
8053.0
8054.0
8057.0
8057.0
8057.0
8057.0
8058.0
8060.0
8061.0
8061.0
8062.0
8062.0
8063.0
8064.0
8065.0
8065.0
8065.0
8066.0
8068.0
8069.0
8069.0
8070.0
8070.0
8072.0
8072.0
8072.0
8073.0
8073.0
8073.0
8074.0
8075.0
8076.0
8077.0
8077.0
8077.0
8078.0
8078.0
8079.0
8080.0
8080.0
8081.0
8082.0
8084.0
8086.0
8086.0
8087.0
8087.0
8088.0
8088.0
8088.0
8090.0
8091.0
8092.0
8093.0
8093.0
8095.0
8096.0
8097.0
8099.0
8099.0
8100.0
8100.0
8103.0
8103.0
8104.0
8107.0
8107.0
8110.0
8110.0
8111.0
8111.0
8111.0
8111.0
8112.0
8112.0
8112.0
8112.0
8114.0
8114.0
8115.0
8115.0
8116.0
8116.0
8117.0
8118.0
8118.0
8119.0
8119.0
8121.0
8121.0
8122.0
8123.0
8124.0
8124.0
8125.0
8126.0
8128.0
8129.0
8130.0
8130.0
8131.0
8132.0
8132.0
8133.0
8134.0
8134.0
8135.0
8137.0
8138.0
8138.0
8141.0
8143.0
8144.0
8145.0
8147.0
8147.0
8149.0
8149.0
8149.0
8151.0
8151.0
8151.0
8152.0
8153.0
8153.0
8154.0
8155.0
8155.0
8156.0
8156.0
8157.0
8157.0
8158.0
8161.0
8161.0
8162.0
8162.0
8163.0
8165.0
8165.0
8166.0
8166.0
8166.0
8167.0
8170.0
8171.0
8171.0
8171.0
8171.0
8172.0
8175.0
8176.0
8176.0
8177.0
8177.0
8179.0
8179.0
8179.0
8180.0
8181.0
8182.0
8182.0
8182.0
8182.0
8183.0
8184.0
8184.0
8185.0
8187.0
8189.0
8190.0
8191.0
8192.0
8192.0
8192.0
8192.0
8193.0
8196.0
8196.0
8196.0
8197.0
8197.0
8198.0
8199.0
8201.0
8202.0
8202.0
8203.0
8203.0
8205.0
8205.0
8206.0
8207.0
8207.0
8207.0
8208.0
8209.0
8209.0
8210.0
8211.0
8211.0
8211.0
8212.0
8214.0
8215.0
8216.0
8217.0
8219.0
8220.0
8220.0
8223.0
8223.0
8224.0
8226.0
8226.0
8226.0
8227.0
8227.0
8229.0
8229.0
8231.0
8231.0
8232.0
8233.0
8233.0
8234.0
8234.0
8235.0
8235.0
8236.0
8236.0
8237.0
8237.0
8238.0
8238.0
8238.0
8238.0
8239.0
8239.0
8239.0
8240.0
8241.0
8241.0
8242.0
8242.0
8244.0
8245.0
8246.0
8246.0
8248.0
8249.0
8252.0
8252.0
8253.0
8253.0
8254.0
8255.0
8255.0
8256.0
8256.0
8256.0
8256.0
8259.0
8259.0
8260.0
8261.0
8261.0
8263.0
8264.0
8265.0
8266.0
8268.0
8270.0
8270.0
8271.0
8272.0
8272.0
8273.0
8273.0
8275.0
8275.0
8276.0
8276.0
8276.0
8277.0
8278.0
8278.0
8280.0
8281.0
8284.0
8285.0
8285.0
8285.0
8286.0
8287.0
8288.0
8288.0
8291.0
8292.0
8295.0
8295.0
8295.0
8296.0
8296.0
8298.0
8299.0
8299.0
8301.0
8302.0
8304.0
8304.0
8305.0
8305.0
8307.0
8309.0
8309.0
8309.0
8310.0
8311.0
8311.0
8313.0
8314.0
8315.0
8316.0
8318.0
8318.0
8319.0
8320.0
8322.0
8323.0
8324.0
8325.0
8326.0
8327.0
8328.0
8328.0
8328.0
8330.0
8331.0
8333.0
8334.0
8334.0
8334.0
8338.0
8339.0
8339.0
8339.0
8341.0
8342.0
8342.0
8343.0
8344.0
8345.0
8345.0
8347.0
8350.0
8350.0
8351.0
8352.0
8352.0
8354.0
8356.0
8361.0
8362.0
8362.0
8365.0
8366.0
8367.0
8368.0
8371.0
8371.0
8372.0
8374.0
8375.0
8375.0
8376.0
8376.0
8377.0
8377.0
8378.0
8382.0
8382.0
8384.0
8385.0
8386.0
8388.0
8388.0
8391.0
8392.0
8394.0
8394.0
8394.0
8396.0
8397.0
8397.0
8398.0
8400.0
8400.0
8400.0
8403.0
8404.0
8405.0
8406.0
8406.0
8408.0
8408.0
8409.0
8409.0
8409.0
8410.0
8410.0
8410.0
8411.0
8412.0
8413.0
8415.0
8417.0
8417.0
8417.0
8417.0
8418.0
8418.0
8418.0
8420.0
8420.0
8421.0
8422.0
8422.0
8422.0
8424.0
8424.0
8425.0
8425.0
8426.0
8426.0
8428.0
8430.0
8430.0
8431.0
8431.0
8432.0
8432.0
8432.0
8433.0
8434.0
8434.0
8434.0
8434.0
8437.0
8437.0
8437.0
8438.0
8438.0
8439.0
8439.0
8440.0
8440.0
8441.0
8441.0
8441.0
8442.0
8443.0
8443.0
8443.0
8444.0
8444.0
8447.0
8447.0
8448.0
8448.0
8449.0
8450.0
8451.0
8451.0
8451.0
8452.0
8454.0
8456.0
8456.0
8456.0
8458.0
8459.0
8460.0
8461.0
8464.0
8464.0
8465.0
8467.0
8468.0
8469.0
8469.0
8470.0
8471.0
8473.0
8473.0
8473.0
8474.0
8475.0
8477.0
8478.0
8480.0
8481.0
8484.0
8485.0
8486.0
8486.0
8486.0
8488.0
8488.0
8488.0
8489.0
8490.0
8490.0
8490.0
8492.0
8492.0
8493.0
8494.0
8495.0
8495.0
8496.0
8497.0
8497.0
8497.0
8499.0
8500.0
8500.0
8500.0
8500.0
8500.0
8501.0
8503.0
8503.0
8505.0
8505.0
8506.0
8506.0
8506.0
8508.0
8510.0
8511.0
8511.0
8512.0
8513.0
8514.0
8515.0
8517.0
8519.0
8520.0
8520.0
8522.0
8522.0
8523.0
8523.0
8524.0
8524.0
8525.0
8525.0
8525.0
8527.0
8527.0
8528.0
8528.0
8530.0
8530.0
8531.0
8531.0
8532.0
8532.0
8532.0
8533.0
8534.0
8539.0
8539.0
8539.0
8539.0
8539.0
8540.0
8540.0
8542.0
8542.0
8543.0
8543.0
8546.0
8547.0
8547.0
8547.0
8548.0
8549.0
8550.0
8550.0
8551.0
8551.0
8552.0
8555.0
8555.0
8556.0
8557.0
8558.0
8559.0
8559.0
8559.0
8560.0
8560.0
8560.0
8561.0
8561.0
8561.0
8561.0
8562.0
8563.0
8563.0
8563.0
8564.0
8565.0
8565.0
8565.0
8566.0
8566.0
8568.0
8570.0
8570.0
8570.0
8570.0
8570.0
8571.0
8573.0
8573.0
8574.0
8574.0
8576.0
8577.0
8578.0
8580.0
8581.0
8581.0
8585.0
8586.0
8587.0
8587.0
8588.0
8588.0
8590.0
8590.0
8590.0
8591.0
8593.0
8593.0
8594.0
8594.0
8594.0
8594.0
8595.0
8596.0
8597.0
8597.0
8598.0
8598.0
8598.0
8599.0
8599.0
8600.0
8601.0
8602.0
8603.0
8603.0
8606.0
8606.0
8606.0
8606.0
8607.0
8609.0
8609.0
8610.0
8610.0
8611.0
8613.0
8613.0
8615.0
8615.0
8615.0
8615.0
8619.0
8620.0
8624.0
8624.0
8624.0
8626.0
8628.0
8629.0
8629.0
8629.0
8630.0
8630.0
8631.0
8639.0
8642.0
8642.0
8645.0
8646.0
8646.0
8646.0
8647.0
8648.0
8648.0
8648.0
8648.0
8648.0
8649.0
8649.0
8649.0
8650.0
8651.0
8651.0
8652.0
8653.0
8653.0
8653.0
8653.0
8653.0
8654.0
8654.0
8654.0
8654.0
8657.0
8658.0
8660.0
8661.0
8662.0
8663.0
8664.0
8664.0
8664.0
8666.0
8668.0
8670.0
8674.0
8674.0
8675.0
8675.0
8677.0
8677.0
8679.0
8680.0
8680.0
8680.0
8681.0
8682.0
8683.0
8684.0
8685.0
8685.0
8685.0
8686.0
8687.0
8688.0
8689.0
8689.0
8692.0
8692.0
8694.0
8694.0
8694.0
8695.0
8696.0
8697.0
8697.0
8697.0
8700.0
8700.0
8701.0
8701.0
8701.0
8702.0
8703.0
8704.0
8704.0
8705.0
8706.0
8706.0
8707.0
8707.0
8707.0
8708.0
8708.0
8709.0
8711.0
8712.0
8713.0
8713.0
8714.0
8715.0
8718.0
8721.0
8722.0
8725.0
8726.0
8726.0
8726.0
8726.0
8728.0
8730.0
8731.0
8732.0
8732.0
8732.0
8733.0
8733.0
8733.0
8734.0
8734.0
8735.0
8735.0
8737.0
8737.0
8737.0
8737.0
8738.0
8738.0
8740.0
8740.0
8741.0
8741.0
8744.0
8745.0
8745.0
8745.0
8745.0
8748.0
8749.0
8749.0
8753.0
8753.0
8754.0
8754.0
8755.0
8756.0
8756.0
8757.0
8757.0
8758.0
8758.0
8759.0
8760.0
8762.0
8764.0
8765.0
8765.0
8766.0
8766.0
8766.0
8767.0
8770.0
8771.0
8774.0
8774.0
8776.0
8778.0
8778.0
8778.0
8779.0
8780.0
8781.0
8782.0
8783.0
8783.0
8785.0
8787.0
8787.0
8788.0
8789.0
8790.0
8790.0
8792.0
8792.0
8793.0
8794.0
8794.0
8796.0
8797.0
8797.0
8798.0
8798.0
8798.0
8799.0
8799.0
8800.0
8801.0
8801.0
8802.0
8803.0
8803.0
8803.0
8805.0
8805.0
8806.0
8807.0
8808.0
8809.0
8810.0
8813.0
8815.0
8815.0
8815.0
8816.0
8817.0
8817.0
8818.0
8821.0
8824.0
8824.0
8826.0
8827.0
8828.0
8828.0
8830.0
8831.0
8831.0
8833.0
8833.0
8833.0
8833.0
8835.0
8836.0
8836.0
8838.0
8840.0
8840.0
8841.0
8843.0
8847.0
8847.0
8849.0
8849.0
8852.0
8853.0
8854.0
8854.0
8854.0
8855.0
8855.0
8856.0
8858.0
8858.0
8858.0
8860.0
8862.0
8864.0
8864.0
8866.0
8866.0
8866.0
8867.0
8867.0
8868.0
8868.0
8870.0
8871.0
8873.0
8873.0
8873.0
8875.0
8878.0
8878.0
8879.0
8879.0
8885.0
8885.0
8885.0
8886.0
8886.0
8888.0
8889.0
8889.0
8890.0
8890.0
8891.0
8891.0
8891.0
8892.0
8895.0
8898.0
8900.0
8900.0
8901.0
8901.0
8902.0
8902.0
8902.0
8903.0
8905.0
8906.0
8906.0
8906.0
8909.0
8909.0
8909.0
8910.0
8911.0
8911.0
8911.0
8912.0
8913.0
8913.0
8914.0
8915.0
8916.0
8916.0
8920.0
8921.0
8921.0
8923.0
8923.0
8924.0
8924.0
8924.0
8925.0
8925.0
8925.0
8925.0
8925.0
8926.0
8928.0
8928.0
8928.0
8929.0
8930.0
8931.0
8931.0
8933.0
8933.0
8933.0
8933.0
8933.0
8935.0
8936.0
8936.0
8937.0
8937.0
8937.0
8938.0
8940.0
8941.0
8941.0
8942.0
8943.0
8943.0
8943.0
8944.0
8944.0
8944.0
8947.0
8947.0
8948.0
8950.0
8950.0
8956.0
8956.0
8956.0
8957.0
8957.0
8958.0
8958.0
8958.0
8959.0
8959.0
8960.0
8960.0
8961.0
8963.0
8963.0
8964.0
8964.0
8964.0
8964.0
8965.0
8965.0
8967.0
8967.0
8968.0
8969.0
8970.0
8971.0
8972.0
8972.0
8972.0
8972.0
8973.0
8974.0
8975.0
8976.0
8977.0
8977.0
8979.0
8981.0
8981.0
8982.0
8984.0
8984.0
8984.0
8986.0
8988.0
8989.0
8994.0
8994.0
8994.0
8997.0
8999.0
9001.0
9002.0
9003.0
9003.0
9004.0
9005.0
9005.0
9006.0
9006.0
9006.0
9006.0
9008.0
9008.0
9008.0
9009.0
9012.0
9013.0
9013.0
9014.0
9016.0
9016.0
9017.0
9017.0
9017.0
9018.0
9018.0
9018.0
9019.0
9022.0
9023.0
9023.0
9024.0
9024.0
9024.0
9025.0
9026.0
9029.0
9029.0
9029.0
9030.0
9034.0
9034.0
9037.0
9037.0
9038.0
9038.0
9039.0
9039.0
9043.0
9044.0
9045.0
9045.0
9046.0
9046.0
9049.0
9049.0
9049.0
9050.0
9051.0
9051.0
9053.0
9056.0
9056.0
9057.0
9057.0
9058.0
9059.0
9060.0
9060.0
9061.0
9061.0
9062.0
9063.0
9064.0
9065.0
9066.0
9067.0
9067.0
9068.0
9068.0
9069.0
9069.0
9070.0
9070.0
9071.0
9071.0
9071.0
9071.0
9072.0
9073.0
9074.0
9075.0
9075.0
9075.0
9075.0
9078.0
9078.0
9080.0
9081.0
9082.0
9084.0
9084.0
9085.0
9086.0
9086.0
9086.0
9087.0
9087.0
9087.0
9089.0
9090.0
9090.0
9090.0
9090.0
9092.0
9092.0
9100.0
9100.0
9102.0
9103.0
9103.0
9105.0
9105.0
9106.0
9106.0
9106.0
9106.0
9107.0
9108.0
9108.0
9110.0
9110.0
9111.0
9111.0
9111.0
9112.0
9112.0
9112.0
9113.0
9113.0
9113.0
9115.0
9116.0
9117.0
9119.0
9119.0
9119.0
9120.0
9121.0
9122.0
9122.0
9124.0
9124.0
9124.0
9128.0
9129.0
9129.0
9131.0
9131.0
9133.0
9136.0
9137.0
9137.0
9138.0
9138.0
9139.0
9139.0
9139.0
9141.0
9141.0
9142.0
9142.0
9143.0
9143.0
9145.0
9145.0
9146.0
9146.0
9146.0
9146.0
9147.0
9147.0
9149.0
9150.0
9150.0
9151.0
9154.0
9154.0
9155.0
9156.0
9156.0
9157.0
9158.0
9160.0
9161.0
9162.0
9162.0
9163.0
9163.0
9165.0
9167.0
9168.0
9168.0
9170.0
9170.0
9171.0
9172.0
9172.0
9172.0
9173.0
9173.0
9174.0
9174.0
9175.0
9175.0
9177.0
9178.0
9178.0
9183.0
9185.0
9186.0
9186.0
9186.0
9187.0
9187.0
9188.0
9188.0
9188.0
9189.0
9189.0
9189.0
9190.0
9192.0
9192.0
9193.0
9193.0
9194.0
9195.0
9195.0
9196.0
9197.0
9197.0
9197.0
9198.0
9199.0
9201.0
9202.0
9204.0
9204.0
9205.0
9207.0
9207.0
9208.0
9209.0
9209.0
9212.0
9212.0
9215.0
9215.0
9216.0
9216.0
9217.0
9217.0
9218.0
9218.0
9221.0
9222.0
9223.0
9223.0
9224.0
9224.0
9225.0
9227.0
9229.0
9231.0
9231.0
9234.0
9234.0
9235.0
9236.0
9239.0
9240.0
9240.0
9241.0
9241.0
9241.0
9241.0
9242.0
9242.0
9242.0
9243.0
9243.0
9244.0
9245.0
9247.0
9247.0
9248.0
9248.0
9250.0
9250.0
9251.0
9251.0
9252.0
9252.0
9253.0
9255.0
9256.0
9257.0
9257.0
9257.0
9258.0
9259.0
9259.0
9260.0
9260.0
9261.0
9261.0
9261.0
9261.0
9263.0
9263.0
9263.0
9265.0
9266.0
9266.0
9266.0
9266.0
9268.0
9269.0
9269.0
9270.0
9270.0
9270.0
9271.0
9271.0
9271.0
9274.0
9274.0
9275.0
9275.0
9276.0
9277.0
9278.0
9279.0
9279.0
9280.0
9281.0
9281.0
9284.0
9284.0
9285.0
9286.0
9287.0
9287.0
9287.0
9290.0
9290.0
9291.0
9292.0
9292.0
9294.0
9295.0
9295.0
9297.0
9298.0
9298.0
9299.0
9300.0
9301.0
9302.0
9302.0
9303.0
9303.0
9304.0
9304.0
9305.0
9307.0
9309.0
9309.0
9312.0
9312.0
9313.0
9314.0
9315.0
9315.0
9315.0
9316.0
9316.0
9316.0
9317.0
9317.0
9319.0
9319.0
9320.0
9321.0
9321.0
9322.0
9322.0
9323.0
9324.0
9324.0
9325.0
9325.0
9325.0
9326.0
9328.0
9329.0
9330.0
9330.0
9330.0
9330.0
9331.0
9331.0
9331.0
9332.0
9332.0
9334.0
9335.0
9337.0
9337.0
9337.0
9338.0
9339.0
9339.0
9339.0
9340.0
9341.0
9341.0
9342.0
9342.0
9342.0
9342.0
9342.0
9343.0
9344.0
9344.0
9344.0
9347.0
9348.0
9349.0
9350.0
9352.0
9355.0
9356.0
9357.0
9357.0
9357.0
9358.0
9360.0
9360.0
9360.0
9361.0
9362.0
9363.0
9364.0
9365.0
9366.0
9366.0
9367.0
9368.0
9370.0
9370.0
9370.0
9371.0
9372.0
9374.0
9376.0
9377.0
9379.0
9380.0
9381.0
9381.0
9384.0
9384.0
9384.0
9386.0
9387.0
9388.0
9390.0
9390.0
9395.0
9395.0
9396.0
9396.0
9401.0
9402.0
9403.0
9403.0
9403.0
9407.0
9411.0
9411.0
9413.0
9414.0
9414.0
9414.0
9415.0
9418.0
9419.0
9419.0
9421.0
9421.0
9423.0
9424.0
9425.0
9426.0
9428.0
9428.0
9429.0
9429.0
9430.0
9430.0
9431.0
9431.0
9432.0
9435.0
9436.0
9437.0
9437.0
9438.0
9441.0
9442.0
9443.0
9444.0
9445.0
9446.0
9448.0
9450.0
9451.0
9451.0
9454.0
9456.0
9457.0
9458.0
9458.0
9460.0
9460.0
9461.0
9461.0
9462.0
9463.0
9464.0
9465.0
9470.0
9470.0
9471.0
9472.0
9473.0
9474.0
9474.0
9475.0
9476.0
9477.0
9477.0
9482.0
9483.0
9484.0
9484.0
9485.0
9486.0
9486.0
9487.0
9488.0
9489.0
9490.0
9490.0
9491.0
9491.0
9492.0
9492.0
9493.0
9494.0
9494.0
9494.0
9495.0
9497.0
9497.0
9498.0
9500.0
9500.0
9500.0
9502.0
9502.0
9502.0
9504.0
9505.0
9505.0
9507.0
9507.0
9507.0
9509.0
9512.0
9514.0
9514.0
9515.0
9521.0
9521.0
9524.0
9526.0
9526.0
9526.0
9527.0
9528.0
9528.0
9531.0
9531.0
9532.0
9533.0
9533.0
9538.0
9541.0
9543.0
9543.0
9545.0
9545.0
9546.0
9546.0
9548.0
9548.0
9549.0
9550.0
9551.0
9551.0
9552.0
9552.0
9552.0
9553.0
9553.0
9553.0
9556.0
9556.0
9557.0
9557.0
9559.0
9559.0
9561.0
9562.0
9562.0
9562.0
9563.0
9566.0
9567.0
9567.0
9567.0
9569.0
9570.0
9570.0
9572.0
9572.0
9572.0
9572.0
9573.0
9574.0
9575.0
9578.0
9580.0
9580.0
9581.0
9581.0
9582.0
9585.0
9585.0
9585.0
9586.0
9587.0
9587.0
9588.0
9589.0
9591.0
9592.0
9593.0
9593.0
9593.0
9594.0
9598.0
9598.0
9598.0
9598.0
9600.0
9601.0
9601.0
9602.0
9603.0
9605.0
9606.0
9608.0
9609.0
9610.0
9611.0
9612.0
9613.0
9614.0
9614.0
9614.0
9618.0
9618.0
9618.0
9618.0
9619.0
9622.0
9622.0
9623.0
9625.0
9626.0
9627.0
9630.0
9630.0
9631.0
9632.0
9632.0
9633.0
9633.0
9633.0
9634.0
9635.0
9635.0
9637.0
9637.0
9638.0
9639.0
9640.0
9641.0
9641.0
9641.0
9642.0
9642.0
9642.0
9643.0
9643.0
9643.0
9644.0
9645.0
9645.0
9646.0
9647.0
9647.0
9649.0
9650.0
9652.0
9652.0
9653.0
9653.0
9654.0
9654.0
9655.0
9656.0
9657.0
9657.0
9657.0
9658.0
9658.0
9658.0
9659.0
9659.0
9660.0
9660.0
9660.0
9660.0
9662.0
9664.0
9665.0
9667.0
9671.0
9673.0
9676.0
9676.0
9679.0
9679.0
9680.0
9680.0
9681.0
9682.0
9684.0
9686.0
9686.0
9687.0
9689.0
9690.0
9690.0
9690.0
9691.0
9694.0
9695.0
9695.0
9696.0
9697.0
9697.0
9697.0
9699.0
9699.0
9700.0
9700.0
9700.0
9702.0
9703.0
9707.0
9707.0
9707.0
9708.0
9709.0
9709.0
9710.0
9711.0
9711.0
9711.0
9712.0
9715.0
9716.0
9716.0
9717.0
9717.0
9718.0
9719.0
9721.0
9721.0
9722.0
9723.0
9723.0
9724.0
9724.0
9725.0
9725.0
9726.0
9726.0
9727.0
9727.0
9728.0
9730.0
9731.0
9731.0
9731.0
9732.0
9732.0
9733.0
9734.0
9735.0
9735.0
9736.0
9737.0
9738.0
9740.0
9740.0
9742.0
9742.0
9743.0
9744.0
9745.0
9745.0
9746.0
9746.0
9747.0
9748.0
9748.0
9750.0
9753.0
9753.0
9755.0
9755.0
9756.0
9757.0
9758.0
9758.0
9760.0
9760.0
9762.0
9763.0
9763.0
9763.0
9764.0
9765.0
9765.0
9765.0
9767.0
9769.0
9771.0
9772.0
9774.0
9775.0
9775.0
9776.0
9778.0
9778.0
9778.0
9779.0
9779.0
9780.0
9781.0
9782.0
9783.0
9783.0
9785.0
9785.0
9790.0
9790.0
9790.0
9793.0
9793.0
9797.0
9799.0
9800.0
9800.0
9802.0
9803.0
9804.0
9804.0
9805.0
9807.0
9807.0
9807.0
9808.0
9809.0
9809.0
9810.0
9810.0
9811.0
9812.0
9812.0
9816.0
9817.0
9818.0
9819.0
9819.0
9820.0
9820.0
9820.0
9820.0
9821.0
9822.0
9826.0
9828.0
9828.0
9828.0
9829.0
9830.0
9830.0
9831.0
9831.0
9831.0
9831.0
9834.0
9836.0
9836.0
9839.0
9841.0
9841.0
9842.0
9842.0
9843.0
9844.0
9845.0
9845.0
9847.0
9848.0
9848.0
9848.0
9848.0
9849.0
9851.0
9852.0
9853.0
9854.0
9856.0
9857.0
9858.0
9859.0
9860.0
9861.0
9862.0
9863.0
9863.0
9866.0
9867.0
9868.0
9868.0
9868.0
9869.0
9869.0
9869.0
9870.0
9872.0
9873.0
9874.0
9875.0
9875.0
9876.0
9876.0
9877.0
9878.0
9878.0
9878.0
9879.0
9879.0
9880.0
9881.0
9883.0
9884.0
9885.0
9887.0
9890.0
9891.0
9891.0
9892.0
9893.0
9896.0
9896.0
9897.0
9897.0
9899.0
9899.0
9899.0
9901.0
9902.0
9902.0
9903.0
9903.0
9903.0
9904.0
9904.0
9906.0
9907.0
9907.0
9907.0
9908.0
9908.0
9909.0
9911.0
9911.0
9913.0
9915.0
9915.0
9916.0
9917.0
9918.0
9918.0
9918.0
9920.0
9923.0
9924.0
9924.0
9929.0
9929.0
9930.0
9931.0
9935.0
9936.0
9937.0
9938.0
9938.0
9939.0
9941.0
9941.0
9942.0
9942.0
9943.0
9946.0
9946.0
9948.0
9949.0
9950.0
9950.0
9951.0
9952.0
9953.0
9953.0
9954.0
9955.0
9956.0
9957.0
9958.0
9959.0
9960.0
9963.0
9964.0
9965.0
9966.0
9967.0
9967.0
9967.0
9967.0
9967.0
9971.0
9975.0
9976.0
9976.0
9976.0
9978.0
9980.0
9982.0
9982.0
9982.0
9984.0
9984.0
9986.0
9987.0
9988.0
9988.0
9991.0
9991.0
9991.0
9992.0
9992.0
9993.0
9994.0
9994.0
9995.0
9995.0
9997.0
9999.0
9999.0
10000.0
10001.0
10003.0
10004.0
10004.0
10005.0
10005.0
10006.0
10006.0
10007.0
10007.0
10008.0
10009.0
10012.0
10012.0
10014.0
10014.0
10015.0
10015.0
10016.0
10017.0
10017.0
10018.0
10018.0
10020.0
10020.0
10020.0
10022.0
10023.0
10023.0
10023.0
10023.0
10025.0
10026.0
10027.0
10029.0
10030.0
10031.0
10032.0
10033.0
10033.0
10034.0
10034.0
10035.0
10035.0
10036.0
10036.0
10036.0
10036.0
10038.0
10038.0
10040.0
10040.0
10042.0
10044.0
10045.0
10046.0
10046.0
10048.0
10049.0
10051.0
10052.0
10053.0
10053.0
10053.0
10054.0
10055.0
10055.0
10059.0
10059.0
10059.0
10060.0
10062.0
10064.0
10065.0
10065.0
10065.0
10065.0
10065.0
10065.0
10066.0
10066.0
10066.0
10067.0
10070.0
10070.0
10070.0
10071.0
10072.0
10072.0
10072.0
10074.0
10074.0
10074.0
10075.0
10076.0
10076.0
10076.0
10077.0
10077.0
10078.0
10078.0
10079.0
10080.0
10080.0
10081.0
10082.0
10084.0
10086.0
10087.0
10088.0
10088.0
10089.0
10089.0
10091.0
10092.0
10093.0
10093.0
10094.0
10095.0
10095.0
10097.0
10098.0
10098.0
10099.0
10100.0
10101.0
10104.0
10104.0
10104.0
10105.0
10106.0
10107.0
10107.0
10108.0
10112.0
10113.0
10114.0
10116.0
10116.0
10116.0
10117.0
10118.0
10118.0
10120.0
10121.0
10124.0
10125.0
10127.0
10130.0
10130.0
10131.0
10131.0
10132.0
10133.0
10133.0
10134.0
10135.0
10135.0
10136.0
10137.0
10139.0
10141.0
10141.0
10142.0
10143.0
10145.0
10146.0
10147.0
10147.0
10147.0
10148.0
10152.0
10153.0
10153.0
10155.0
10155.0
10157.0
10159.0
10160.0
10161.0
10162.0
10164.0
10165.0
10165.0
10165.0
10166.0
10167.0
10168.0
10168.0
10168.0
10169.0
10170.0
10170.0
10170.0
10170.0
10171.0
10172.0
10172.0
10173.0
10174.0
10175.0
10175.0
10176.0
10177.0
10178.0
10180.0
10182.0
10183.0
10184.0
10184.0
10184.0
10184.0
10185.0
10187.0
10187.0
10188.0
10189.0
10189.0
10189.0
10190.0
10190.0
10190.0
10191.0
10192.0
10193.0
10193.0
10194.0
10194.0
10196.0
10197.0
10198.0
10198.0
10201.0
10202.0
10202.0
10202.0
10205.0
10207.0
10208.0
10209.0
10210.0
10211.0
10211.0
10212.0
10212.0
10213.0
10213.0
10214.0
10216.0
10217.0
10218.0
10219.0
10222.0
10223.0
10224.0
10224.0
10225.0
10225.0
10226.0
10227.0
10227.0
10228.0
10228.0
10229.0
10229.0
10232.0
10232.0
10233.0
10234.0
10234.0
10234.0
10235.0
10235.0
10236.0
10237.0
10238.0
10239.0
10239.0
10240.0
10240.0
10240.0
10241.0
10242.0
10242.0
10242.0
10243.0
10245.0
10245.0
10245.0
10247.0
10251.0
10254.0
10255.0
10255.0
10255.0
10257.0
10258.0
10258.0
10258.0
10259.0
10260.0
10260.0
10261.0
10261.0
10261.0
10263.0
10264.0
10267.0
10267.0
10267.0
10268.0
10270.0
10272.0
10272.0
10274.0
10274.0
10277.0
10277.0
10278.0
10278.0
10279.0
10279.0
10281.0
10282.0
10283.0
10283.0
10286.0
10287.0
10289.0
10289.0
10290.0
10290.0
10292.0
10293.0
10295.0
10299.0
10299.0
10299.0
10300.0
10300.0
10300.0
10300.0
10300.0
10300.0
10302.0
10303.0
10304.0
10304.0
10306.0
10306.0
10306.0
10308.0
10309.0
10311.0
10313.0
10313.0
10314.0
10314.0
10314.0
10317.0
10318.0
10318.0
10319.0
10322.0
10322.0
10323.0
10323.0
10325.0
10328.0
10329.0
10330.0
10332.0
10337.0
10338.0
10339.0
10339.0
10339.0
10339.0
10342.0
10343.0
10343.0
10343.0
10345.0
10345.0
10348.0
10348.0
10350.0
10350.0
10352.0
10354.0
10356.0
10356.0
10358.0
10361.0
10362.0
10363.0
10364.0
10364.0
10368.0
10374.0
10374.0
10375.0
10375.0
10376.0
10378.0
10378.0
10382.0
10384.0
10385.0
10387.0
10387.0
10389.0
10391.0
10391.0
10392.0
10394.0
10396.0
10398.0
10399.0
10399.0
10400.0
10401.0
10402.0
10403.0
10405.0
10405.0
10410.0
10410.0
10411.0
10414.0
10415.0
10417.0
10418.0
10419.0
10420.0
10420.0
10422.0
10422.0
10423.0
10423.0
10424.0
10424.0
10425.0
10425.0
10426.0
10427.0
10428.0
10428.0
10429.0
10430.0
10430.0
10430.0
10433.0
10434.0
10435.0
10437.0
10438.0
10438.0
10439.0
10440.0
10441.0
10442.0
10444.0
10446.0
10450.0
10451.0
10452.0
10454.0
10454.0
10455.0
10456.0
10458.0
10458.0
10459.0
10459.0
10462.0
10463.0
10464.0
10464.0
10465.0
10468.0
10471.0
10473.0
10475.0
10476.0
10480.0
10481.0
10481.0
10482.0
10482.0
10482.0
10483.0
10483.0
10484.0
10485.0
10485.0
10486.0
10486.0
10486.0
10487.0
10488.0
10488.0
10489.0
10489.0
10493.0
10494.0
10494.0
10495.0
10495.0
10496.0
10497.0
10499.0
10500.0
10500.0
10501.0
10502.0
10502.0
10503.0
10503.0
10506.0
10506.0
10508.0
10509.0
10509.0
10510.0
10510.0
10512.0
10512.0
10512.0
10513.0
10515.0
10517.0
10519.0
10519.0
10519.0
10519.0
10521.0
10523.0
10523.0
10526.0
10527.0
10528.0
10528.0
10529.0
10531.0
10532.0
10534.0
10534.0
10535.0
10535.0
10537.0
10537.0
10539.0
10539.0
10539.0
10539.0
10541.0
10542.0
10543.0
10546.0
10547.0
10550.0
10553.0
10553.0
10555.0
10555.0
10557.0
10557.0
10558.0
10559.0
10559.0
10565.0
10569.0
10570.0
10571.0
10571.0
10572.0
10573.0
10573.0
10573.0
10574.0
10575.0
10576.0
10578.0
10578.0
10579.0
10580.0
10582.0
10583.0
10587.0
10590.0
10590.0
10592.0
10594.0
10594.0
10595.0
10596.0
10599.0
10600.0
10601.0
10602.0
10603.0
10604.0
10604.0
10607.0
10607.0
10609.0
10609.0
10612.0
10614.0
10614.0
10614.0
10614.0
10618.0
10618.0
10618.0
10618.0
10620.0
10623.0
10625.0
10626.0
10627.0
10629.0
10631.0
10632.0
10632.0
10633.0
10634.0
10634.0
10637.0
10638.0
10638.0
10639.0
10641.0
10642.0
10642.0
10643.0
10644.0
10645.0
10646.0
10646.0
10646.0
10647.0
10648.0
10651.0
10651.0
10652.0
10660.0
10661.0
10663.0
10665.0
10668.0
10672.0
10672.0
10675.0
10675.0
10675.0
10679.0
10681.0
10682.0
10682.0
10684.0
10684.0
10684.0
10686.0
10688.0
10689.0
10693.0
10694.0
10694.0
10695.0
10696.0
10697.0
10697.0
10698.0
10699.0
10699.0
10700.0
10700.0
10706.0
10706.0
10707.0
10707.0
10708.0
10710.0
10710.0
10710.0
10711.0
10711.0
10712.0
10714.0
10716.0
10716.0
10716.0
10716.0
10717.0
10717.0
10721.0
10721.0
10721.0
10722.0
10722.0
10722.0
10726.0
10727.0
10728.0
10728.0
10728.0
10730.0
10731.0
10732.0
10733.0
10733.0
10735.0
10736.0
10740.0
10740.0
10744.0
10744.0
10747.0
10747.0
10748.0
10748.0
10749.0
10749.0
10752.0
10752.0
10752.0
10753.0
10754.0
10754.0
10755.0
10755.0
10755.0
10756.0
10760.0
10760.0
10763.0
10764.0
10764.0
10766.0
10767.0
10768.0
10769.0
10769.0
10771.0
10772.0
10772.0
10773.0
10774.0
10779.0
10779.0
10779.0
10780.0
10781.0
10782.0
10783.0
10783.0
10783.0
10784.0
10784.0
10784.0
10785.0
10788.0
10788.0
10789.0
10791.0
10791.0
10793.0
10794.0
10795.0
10795.0
10799.0
10803.0
10803.0
10804.0
10804.0
10806.0
10806.0
10807.0
10807.0
10808.0
10815.0
10816.0
10817.0
10818.0
10818.0
10819.0
10820.0
10821.0
10822.0
10822.0
10823.0
10827.0
10827.0
10828.0
10829.0
10830.0
10831.0
10831.0
10831.0
10832.0
10834.0
10835.0
10835.0
10835.0
10837.0
10838.0
10840.0
10840.0
10842.0
10843.0
10844.0
10845.0
10846.0
10847.0
10848.0
10850.0
10851.0
10851.0
10851.0
10851.0
10851.0
10856.0
10856.0
10857.0
10857.0
10858.0
10860.0
10860.0
10861.0
10863.0
10863.0
10864.0
10865.0
10865.0
10867.0
10868.0
10869.0
10869.0
10870.0
10870.0
10871.0
10873.0
10876.0
10876.0
10877.0
10878.0
10881.0
10881.0
10883.0
10884.0
10885.0
10887.0
10889.0
10891.0
10891.0
10895.0
10898.0
10898.0
10899.0
10900.0
10900.0
10901.0
10903.0
10903.0
10904.0
10904.0
10904.0
10905.0
10905.0
10906.0
10906.0
10906.0
10908.0
10909.0
10910.0
10912.0
10913.0
10914.0
10915.0
10915.0
10918.0
10919.0
10919.0
10924.0
10925.0
10928.0
10932.0
10932.0
10932.0
10936.0
10937.0
10937.0
10938.0
10947.0
10952.0
10952.0
10953.0
10954.0
10955.0
10959.0
10960.0
10960.0
10960.0
10960.0
10961.0
10961.0
10961.0
10965.0
10967.0
10968.0
10971.0
10972.0
10972.0
10973.0
10973.0
10976.0
10977.0
10977.0
10981.0
10982.0
10986.0
10987.0
10990.0
10991.0
10996.0
10996.0
10997.0
10998.0
10998.0
10999.0
11000.0
11005.0
11006.0
11006.0
11007.0
11010.0
11012.0
11013.0
11013.0
11013.0
11014.0
11014.0
11015.0
11015.0
11017.0
11018.0
11018.0
11022.0
11023.0
11025.0
11025.0
11026.0
11027.0
11028.0
11031.0
11032.0
11032.0
11033.0
11033.0
11035.0
11035.0
11036.0
11039.0
11039.0
11039.0
11040.0
11041.0
11041.0
11044.0
11052.0
11052.0
11053.0
11053.0
11054.0
11055.0
11057.0
11057.0
11057.0
11058.0
11058.0
11061.0
11063.0
11063.0
11064.0
11064.0
11065.0
11065.0
11065.0
11067.0
11067.0
11068.0
11069.0
11069.0
11071.0
11072.0
11073.0
11075.0
11076.0
11076.0
11077.0
11080.0
11083.0
11087.0
11088.0
11088.0
11092.0
11092.0
11094.0
11099.0
11101.0
11103.0
11104.0
11104.0
11105.0
11105.0
11105.0
11105.0
11105.0
11106.0
11107.0
11108.0
11110.0
11113.0
11116.0
11118.0
11123.0
11124.0
11124.0
11125.0
11125.0
11126.0
11126.0
11126.0
11126.0
11126.0
11128.0
11128.0
11129.0
11129.0
11130.0
11130.0
11134.0
11134.0
11134.0
11135.0
11140.0
11142.0
11142.0
11143.0
11145.0
11146.0
11146.0
11148.0
11148.0
11149.0
11154.0
11155.0
11156.0
11156.0
11157.0
11158.0
11159.0
11161.0
11161.0
11162.0
11163.0
11163.0
11163.0
11163.0
11166.0
11167.0
11167.0
11168.0
11169.0
11171.0
11172.0
11173.0
11173.0
11174.0
11174.0
11175.0
11178.0
11179.0
11180.0
11181.0
11181.0
11183.0
11188.0
11191.0
11194.0
11199.0
11201.0
11201.0
11204.0
11205.0
11207.0
11207.0
11211.0
11214.0
11216.0
11217.0
11219.0
11220.0
11220.0
11221.0
11223.0
11227.0
11227.0
11230.0
11231.0
11232.0
11232.0
11233.0
11236.0
11238.0
11239.0
11242.0
11246.0
11247.0
11249.0
11252.0
11254.0
11254.0
11254.0
11255.0
11255.0
11257.0
11257.0
11257.0
11258.0
11265.0
11265.0
11273.0
11275.0
11276.0
11276.0
11278.0
11278.0
11279.0
11279.0
11279.0
11281.0
11281.0
11283.0
11283.0
11284.0
11287.0
11288.0
11289.0
11291.0
11291.0
11294.0
11294.0
11295.0
11295.0
11296.0
11297.0
11298.0
11301.0
11303.0
11303.0
11303.0
11305.0
11306.0
11308.0
11308.0
11311.0
11315.0
11315.0
11317.0
11318.0
11319.0
11320.0
11324.0
11325.0
11327.0
11328.0
11330.0
11330.0
11332.0
11333.0
11334.0
11338.0
11339.0
11340.0
11344.0
11345.0
11346.0
11346.0
11348.0
11349.0
11351.0
11351.0
11354.0
11354.0
11355.0
11356.0
11357.0
11358.0
11359.0
11362.0
11362.0
11364.0
11365.0
11368.0
11369.0
11374.0
11374.0
11374.0
11376.0
11376.0
11377.0
11379.0
11383.0
11384.0
11385.0
11388.0
11388.0
11392.0
11392.0
11394.0
11394.0
11395.0
11397.0
11401.0
11401.0
11403.0
11403.0
11404.0
11404.0
11406.0
11409.0
11412.0
11413.0
11414.0
11414.0
11415.0
11416.0
11419.0
11420.0
11420.0
11421.0
11422.0
11424.0
11425.0
11428.0
11430.0
11431.0
11434.0
11434.0
11437.0
11438.0
11438.0
11439.0
11439.0
11439.0
11439.0
11441.0
11444.0
11449.0
11450.0
11452.0
11452.0
11455.0
11455.0
11456.0
11460.0
11462.0
11464.0
11465.0
11469.0
11470.0
11472.0
11474.0
11474.0
11475.0
11475.0
11478.0
11478.0
11478.0
11480.0
11480.0
11482.0
11483.0
11485.0
11487.0
11487.0
11488.0
11489.0
11493.0
11493.0
11495.0
11495.0
11497.0
11498.0
11498.0
11500.0
11502.0
11502.0
11504.0
11505.0
11506.0
11507.0
11509.0
11511.0
11512.0
11513.0
11514.0
11517.0
11517.0
11521.0
11523.0
11524.0
11524.0
11524.0
11527.0
11529.0
11531.0
11531.0
11533.0
11534.0
11535.0
11537.0
11539.0
11540.0
11541.0
11542.0
11545.0
11546.0
11547.0
11549.0
11550.0
11554.0
11554.0
11555.0
11556.0
11556.0
11557.0
11561.0
11562.0
11564.0
11571.0
11572.0
11572.0
11575.0
11577.0
11578.0
11582.0
11583.0
11584.0
11585.0
11586.0
11587.0
11588.0
11588.0
11589.0
11590.0
11591.0
11591.0
11592.0
11593.0
11597.0
11598.0
11600.0
11601.0
11601.0
11601.0
11606.0
11608.0
11609.0
11610.0
11611.0
11614.0
11616.0
11618.0
11618.0
11620.0
11622.0
11624.0
11625.0
11627.0
11628.0
11632.0
11632.0
11633.0
11634.0
11635.0
11636.0
11638.0
11639.0
11640.0
11641.0
11642.0
11643.0
11647.0
11647.0
11647.0
11648.0
11650.0
11650.0
11651.0
11652.0
11654.0
11656.0
11660.0
11661.0
11661.0
11663.0
11664.0
11666.0
11668.0
11669.0
11671.0
11674.0
11674.0
11675.0
11675.0
11685.0
11685.0
11686.0
11690.0
11692.0
11693.0
11695.0
11695.0
11699.0
11703.0
11705.0
11706.0
11707.0
11708.0
11712.0
11714.0
11715.0
11720.0
11720.0
11722.0
11723.0
11724.0
11725.0
11725.0
11726.0
11726.0
11727.0
11727.0
11730.0
11730.0
11730.0
11732.0
11733.0
11733.0
11734.0
11734.0
11735.0
11736.0
11739.0
11739.0
11747.0
11747.0
11748.0
11749.0
11750.0
11750.0
11750.0
11752.0
11754.0
11754.0
11756.0
11756.0
11758.0
11761.0
11761.0
11762.0
11763.0
11765.0
11767.0
11774.0
11775.0
11775.0
11775.0
11776.0
11777.0
11778.0
11779.0
11783.0
11785.0
11786.0
11786.0
11787.0
11788.0
11793.0
11793.0
11794.0
11794.0
11794.0
11795.0
11797.0
11798.0
11799.0
11799.0
11801.0
11802.0
11804.0
11804.0
11804.0
11804.0
11805.0
11805.0
11805.0
11807.0
11807.0
11808.0
11808.0
11809.0
11810.0
11811.0
11811.0
11812.0
11814.0
11816.0
11818.0
11824.0
11825.0
11826.0
11827.0
11828.0
11832.0
11836.0
11838.0
11841.0
11842.0
11843.0
11844.0
11844.0
11845.0
11847.0
11848.0
11850.0
11850.0
11850.0
11853.0
11856.0
11857.0
11857.0
11858.0
11858.0
11858.0
11865.0
11865.0
11866.0
11878.0
11879.0
11880.0
11883.0
11885.0
11885.0
11885.0
11885.0
11885.0
11885.0
11887.0
11887.0
11889.0
11889.0
11893.0
11896.0
11897.0
11898.0
11899.0
11899.0
11902.0
11906.0
11906.0
11908.0
11910.0
11914.0
11914.0
11915.0
11916.0
11917.0
11918.0
11918.0
11918.0
11921.0
11922.0
11923.0
11923.0
11925.0
11927.0
11928.0
11931.0
11931.0
11937.0
11939.0
11941.0
11942.0
11943.0
11948.0
11949.0
11952.0
11953.0
11953.0
11954.0
11955.0
11955.0
11956.0
11956.0
11959.0
11961.0
11962.0
11962.0
11965.0
11965.0
11969.0
11969.0
11969.0
11971.0
11971.0
11972.0
11974.0
11975.0
11976.0
11976.0
11980.0
11985.0
11986.0
11988.0
11990.0
11991.0
11996.0
11997.0
11998.0
11999.0
11999.0
12000.0
12002.0
12002.0
12008.0
12011.0
12011.0
12014.0
12014.0
12015.0
12016.0
12018.0
12018.0
12019.0
12019.0
12020.0
12020.0
12021.0
12025.0
12025.0
12026.0
12026.0
12027.0
12028.0
12029.0
12031.0
12031.0
12041.0
12048.0
12049.0
12052.0
12054.0
12054.0
12055.0
12056.0
12061.0
12061.0
12062.0
12062.0
12066.0
12067.0
12068.0
12070.0
12071.0
12071.0
12074.0
12079.0
12079.0
12080.0
12082.0
12082.0
12083.0
12086.0
12086.0
12089.0
12092.0
12092.0
12102.0
12103.0
12106.0
12106.0
12108.0
12110.0
12118.0
12118.0
12119.0
12119.0
12121.0
12125.0
12126.0
12127.0
12128.0
12130.0
12131.0
12131.0
12132.0
12132.0
12134.0
12134.0
12135.0
12136.0
12136.0
12139.0
12139.0
12143.0
12148.0
12149.0
12157.0
12159.0
12161.0
12167.0
12167.0
12169.0
12169.0
12171.0
12172.0
12173.0
12174.0
12174.0
12183.0
12186.0
12188.0
12190.0
12191.0
12192.0
12193.0
12194.0
12194.0
12198.0
12199.0
12201.0
12203.0
12205.0
12207.0
12207.0
12209.0
12211.0
12212.0
12212.0
12212.0
12213.0
12218.0
12218.0
12220.0
12223.0
12226.0
12226.0
12228.0
12229.0
12229.0
12230.0
12230.0
12232.0
12233.0
12235.0
12236.0
12236.0
12236.0
12239.0
12241.0
12243.0
12243.0
12244.0
12244.0
12244.0
12245.0
12245.0
12248.0
12249.0
12250.0
12250.0
12252.0
12254.0
12255.0
12256.0
12261.0
12262.0
12262.0
12264.0
12266.0
12266.0
12270.0
12271.0
12271.0
12272.0
12273.0
12275.0
12276.0
12279.0
12281.0
12283.0
12283.0
12288.0
12288.0
12289.0
12290.0
12293.0
12294.0
12294.0
12297.0
12299.0
12300.0
12305.0
12305.0
12306.0
12306.0
12310.0
12313.0
12314.0
12316.0
12319.0
12320.0
12322.0
12325.0
12326.0
12326.0
12331.0
12332.0
12332.0
12333.0
12337.0
12338.0
12339.0
12339.0
12340.0
12343.0
12345.0
12346.0
12347.0
12347.0
12348.0
12348.0
12353.0
12354.0
12354.0
12355.0
12357.0
12357.0
12359.0
12363.0
12363.0
12364.0
12364.0
12368.0
12372.0
12373.0
12374.0
12376.0
12380.0
12381.0
12382.0
12383.0
12386.0
12388.0
12392.0
12393.0
12397.0
12398.0
12398.0
12398.0
12400.0
12405.0
12409.0
12411.0
12412.0
12419.0
12421.0
12422.0
12427.0
12429.0
12429.0
12430.0
12432.0
12434.0
12436.0
12436.0
12436.0
12437.0
12439.0
12440.0
12443.0
12443.0
12444.0
12446.0
12446.0
12448.0
12448.0
12449.0
12450.0
12452.0
12455.0
12456.0
12459.0
12459.0
12461.0
12461.0
12463.0
12463.0
12467.0
12469.0
12470.0
12470.0
12471.0
12471.0
12471.0
12472.0
12473.0
12474.0
12477.0
12483.0
12484.0
12486.0
12492.0
12492.0
12493.0
12494.0
12495.0
12495.0
12500.0
12504.0
12505.0
12507.0
12507.0
12509.0
12509.0
12510.0
12511.0
12511.0
12512.0
12513.0
12514.0
12515.0
12515.0
12517.0
12517.0
12518.0
12519.0
12521.0
12524.0
12529.0
12531.0
12532.0
12532.0
12533.0
12535.0
12538.0
12538.0
12538.0
12539.0
12541.0
12542.0
12543.0
12545.0
12546.0
12546.0
12548.0
12549.0
12555.0
12556.0
12557.0
12558.0
12559.0
12564.0
12564.0
12566.0
12569.0
12571.0
12576.0
12576.0
12579.0
12579.0
12581.0
12583.0
12583.0
12584.0
12584.0
12585.0
12586.0
12588.0
12589.0
12589.0
12589.0
12594.0
12597.0
12597.0
12598.0
12599.0
12600.0
12603.0
12604.0
12604.0
12605.0
12607.0
12608.0
12610.0
12610.0
12612.0
12614.0
12617.0
12617.0
12621.0
12621.0
12622.0
12624.0
12624.0
12625.0
12626.0
12626.0
12627.0
12629.0
12631.0
12632.0
12633.0
12636.0
12638.0
12639.0
12640.0
12643.0
12648.0
12648.0
12648.0
12649.0
12649.0
12652.0
12653.0
12658.0
12658.0
12660.0
12666.0
12668.0
12669.0
12670.0
12670.0
12670.0
12672.0
12674.0
12674.0
12676.0
12677.0
12679.0
12680.0
12685.0
12686.0
12686.0
12689.0
12690.0
12690.0
12692.0
12692.0
12695.0
12696.0
12698.0
12702.0
12702.0
12704.0
12705.0
12706.0
12708.0
12708.0
12710.0
12711.0
12713.0
12715.0
12715.0
12715.0
12717.0
12720.0
12721.0
12724.0
12724.0
12726.0
12726.0
12728.0
12728.0
12731.0
12733.0
12734.0
12737.0
12739.0
12739.0
12746.0
12746.0
12746.0
12746.0
12748.0
12750.0
12754.0
12754.0
12765.0
12765.0
12766.0
12767.0
12768.0
12769.0
12771.0
12771.0
12773.0
12774.0
12774.0
12775.0
12783.0
12784.0
12784.0
12786.0
12790.0
12790.0
12791.0
12793.0
12793.0
12794.0
12795.0
12797.0
12797.0
12799.0
12799.0
12802.0
12802.0
12807.0
12809.0
12811.0
12812.0
12817.0
12818.0
12820.0
12823.0
12824.0
12824.0
12824.0
12827.0
12828.0
12829.0
12831.0
12832.0
12834.0
12835.0
12836.0
12836.0
12837.0
12837.0
12840.0
12842.0
12842.0
12844.0
12845.0
12846.0
12846.0
12847.0
12849.0
12851.0
12852.0
12852.0
12854.0
12855.0
12856.0
12857.0
12862.0
12862.0
12870.0
12870.0
12875.0
12875.0
12882.0
12884.0
12885.0
12886.0
12889.0
12891.0
12894.0
12896.0
12897.0
12898.0
12900.0
12904.0
12904.0
12908.0
12909.0
12910.0
12911.0
12913.0
12914.0
12914.0
12914.0
12918.0
12918.0
12918.0
12919.0
12923.0
12923.0
12923.0
12925.0
12927.0
12928.0
12929.0
12929.0
12931.0
12933.0
12933.0
12939.0
12942.0
12942.0
12945.0
12945.0
12946.0
12947.0
12947.0
12947.0
12948.0
12949.0
12951.0
12953.0
12955.0
12959.0
12963.0
12963.0
12965.0
12965.0
12968.0
12969.0
12969.0
12969.0
12970.0
12970.0
12973.0
12973.0
12975.0
12979.0
12979.0
12984.0
12988.0
12991.0
12993.0
12993.0
12995.0
12998.0
13003.0
13005.0
13010.0
13012.0
13014.0
13015.0
13017.0
13019.0
13020.0
13021.0
13025.0
13026.0
13027.0
13032.0
13033.0
13035.0
13036.0
13041.0
13044.0
13050.0
13059.0
13059.0
13060.0
13061.0
13065.0
13069.0
13070.0
13071.0
13072.0
13074.0
13075.0
13075.0
13077.0
13078.0
13080.0
13084.0
13085.0
13085.0
13088.0
13088.0
13090.0
13092.0
13095.0
13101.0
13107.0
13110.0
13110.0
13110.0
13114.0
13115.0
13117.0
13117.0
13118.0
13123.0
13123.0
13126.0
13126.0
13128.0
13129.0
13130.0
13130.0
13131.0
13133.0
13133.0
13133.0
13134.0
13136.0
13136.0
13138.0
13140.0
13142.0
13142.0
13143.0
13143.0
13143.0
13147.0
13151.0
13152.0
13152.0
13153.0
13154.0
13160.0
13160.0
13163.0
13164.0
13165.0
13172.0
13172.0
13172.0
13173.0
13181.0
13184.0
13186.0
13186.0
13188.0
13189.0
13189.0
13190.0
13192.0
13194.0
13195.0
13197.0
13199.0
13199.0
13200.0
13201.0
13201.0
13203.0
13205.0
13206.0
13211.0
13212.0
13214.0
13216.0
13218.0
13223.0
13225.0
13227.0
13231.0
13232.0
13233.0
13233.0
13237.0
13238.0
13240.0
13240.0
13242.0
13243.0
13244.0
13246.0
13246.0
13248.0
13254.0
13255.0
13255.0
13257.0
13258.0
13258.0
13258.0
13260.0
13261.0
13268.0
13268.0
13271.0
13278.0
13279.0
13280.0
13282.0
13286.0
13286.0
13290.0
13290.0
13292.0
13298.0
13303.0
13306.0
13308.0
13311.0
13311.0
13316.0
13322.0
13325.0
13325.0
13326.0
13327.0
13336.0
13340.0
13341.0
13345.0
13348.0
13350.0
13351.0
13351.0
13357.0
13360.0
13361.0
13362.0
13362.0
13362.0
13363.0
13375.0
13376.0
13376.0
13378.0
13379.0
13379.0
13379.0
13379.0
13380.0
13381.0
13383.0
13384.0
13388.0
13388.0
13395.0
13397.0
13403.0
13405.0
13406.0
13411.0
13415.0
13416.0
13416.0
13420.0
13421.0
13422.0
13423.0
13424.0
13425.0
13428.0
13430.0
13430.0
13431.0
13435.0
13435.0
13436.0
13437.0
13438.0
13438.0
13442.0
13442.0
13443.0
13445.0
13447.0
13448.0
13448.0
13448.0
13448.0
13449.0
13451.0
13454.0
13458.0
13460.0
13460.0
13461.0
13465.0
13465.0
13467.0
13469.0
13473.0
13473.0
13477.0
13479.0
13480.0
13482.0
13483.0
13486.0
13489.0
13493.0
13493.0
13499.0
13502.0
13503.0
13504.0
13506.0
13508.0
13510.0
13511.0
13512.0
13512.0
13514.0
13514.0
13514.0
13515.0
13516.0
13517.0
13520.0
13520.0
13522.0
13524.0
13525.0
13526.0
13527.0
13529.0
13530.0
13531.0
13532.0
13532.0
13541.0
13542.0
13543.0
13544.0
13546.0
13546.0
13555.0
13559.0
13559.0
13562.0
13564.0
13564.0
13565.0
13566.0
13567.0
13569.0
13570.0
13571.0
13572.0
13573.0
13574.0
13574.0
13587.0
13587.0
13593.0
13593.0
13596.0
13598.0
13599.0
13599.0
13601.0
13602.0
13603.0
13604.0
13604.0
13608.0
13612.0
13613.0
13613.0
13619.0
13626.0
13634.0
13634.0
13636.0
13637.0
13642.0
13642.0
13650.0
13655.0
13656.0
13661.0
13663.0
13664.0
13664.0
13665.0
13668.0
13669.0
13669.0
13673.0
13674.0
13674.0
13675.0
13675.0
13676.0
13677.0
13679.0
13682.0
13684.0
13686.0
13689.0
13692.0
13692.0
13696.0
13697.0
13699.0
13702.0
13702.0
13709.0
13713.0
13715.0
13716.0
13720.0
13721.0
13721.0
13723.0
13731.0
13731.0
13734.0
13734.0
13738.0
13743.0
13746.0
13754.0
13755.0
13757.0
13757.0
13760.0
13766.0
13766.0
13766.0
13770.0
13772.0
13784.0
13784.0
13785.0
13788.0
13790.0
13792.0
13792.0
13794.0
13794.0
13795.0
13796.0
13796.0
13798.0
13798.0
13799.0
13803.0
13804.0
13805.0
13805.0
13809.0
13812.0
13813.0
13815.0
13815.0
13816.0
13818.0
13819.0
13825.0
13825.0
13826.0
13827.0
13828.0
13829.0
13830.0
13831.0
13831.0
13833.0
13836.0
13840.0
13842.0
13846.0
13853.0
13854.0
13854.0
13854.0
13854.0
13855.0
13856.0
13857.0
13859.0
13861.0
13862.0
13864.0
13866.0
13868.0
13870.0
13872.0
13873.0
13879.0
13880.0
13883.0
13883.0
13884.0
13884.0
13886.0
13887.0
13888.0
13889.0
13896.0
13896.0
13897.0
13897.0
13900.0
13902.0
13906.0
13909.0
13910.0
13910.0
13911.0
13912.0
13912.0
13913.0
13914.0
13915.0
13915.0
13916.0
13920.0
13920.0
13921.0
13925.0
13928.0
13931.0
13934.0
13934.0
13935.0
13940.0
13941.0
13942.0
13943.0
13945.0
13947.0
13948.0
13956.0
13957.0
13958.0
13961.0
13961.0
13961.0
13965.0
13966.0
13967.0
13968.0
13969.0
13970.0
13970.0
13974.0
13978.0
13979.0
13980.0
13981.0
13982.0
13984.0
13987.0
13988.0
13991.0
13993.0
13995.0
13996.0
13997.0
14004.0
14007.0
14014.0
14018.0
14023.0
14023.0
14023.0
14025.0
14029.0
14031.0
14031.0
14032.0
14038.0
14041.0
14045.0
14046.0
14048.0
14048.0
14051.0
14052.0
14053.0
14055.0
14056.0
14058.0
14064.0
14065.0
14065.0
14066.0
14069.0
14071.0
14072.0
14072.0
14074.0
14074.0
14075.0
14075.0
14077.0
14077.0
14078.0
14083.0
14086.0
14090.0
14094.0
14095.0
14096.0
14096.0
14099.0
14100.0
14103.0
14103.0
14105.0
14106.0
14106.0
14108.0
14109.0
14110.0
14121.0
14123.0
14128.0
14137.0
14137.0
14138.0
14141.0
14141.0
14142.0
14150.0
14154.0
14157.0
14161.0
14163.0
14165.0
14166.0
14168.0
14169.0
14173.0
14176.0
14177.0
14178.0
14179.0
14180.0
14181.0
14185.0
14194.0
14195.0
14197.0
14201.0
14201.0
14202.0
14203.0
14203.0
14209.0
14212.0
14216.0
14217.0
14223.0
14226.0
14232.0
14239.0
14241.0
14241.0
14243.0
14245.0
14247.0
14247.0
14250.0
14251.0
14253.0
14253.0
14255.0
14256.0
14258.0
14273.0
14273.0
14276.0
14278.0
14282.0
14285.0
14285.0
14288.0
14295.0
14295.0
14300.0
14300.0
14301.0
14306.0
14306.0
14312.0
14314.0
14323.0
14323.0
14327.0
14328.0
14330.0
14337.0
14342.0
14354.0
14354.0
14355.0
14359.0
14363.0
14363.0
14372.0
14381.0
14387.0
14389.0
14390.0
14390.0
14395.0
14396.0
14406.0
14407.0
14410.0
14411.0
14411.0
14412.0
14418.0
14420.0
14423.0
14424.0
14426.0
14430.0
14439.0
14439.0
14439.0
14441.0
14441.0
14446.0
14447.0
14447.0
14450.0
14452.0
14454.0
14458.0
14461.0
14465.0
14468.0
14470.0
14472.0
14474.0
14480.0
14482.0
14482.0
14488.0
14493.0
14494.0
14494.0
14494.0
14494.0
14495.0
14495.0
14498.0
14500.0
14500.0
14501.0
14503.0
14503.0
14505.0
14506.0
14506.0
14508.0
14510.0
14512.0
14514.0
14514.0
14517.0
14519.0
14523.0
14525.0
14526.0
14530.0
14533.0
14535.0
14538.0
14540.0
14543.0
14545.0
14546.0
14553.0
14554.0
14556.0
14557.0
14559.0
14561.0
14562.0
14564.0
14565.0
14566.0
14572.0
14576.0
14580.0
14581.0
14586.0
14588.0
14591.0
14592.0
14592.0
14598.0
14600.0
14600.0
14606.0
14609.0
14610.0
14613.0
14613.0
14616.0
14617.0
14620.0
14623.0
14627.0
14634.0
14635.0
14639.0
14639.0
14640.0
14642.0
14642.0
14645.0
14647.0
14647.0
14650.0
14650.0
14650.0
14654.0
14657.0
14660.0
14665.0
14666.0
14673.0
14674.0
14677.0
14678.0
14680.0
14680.0
14683.0
14685.0
14685.0
14698.0
14698.0
14708.0
14709.0
14709.0
14713.0
14713.0
14716.0
14717.0
14723.0
14724.0
14724.0
14727.0
14728.0
14729.0
14737.0
14737.0
14744.0
14748.0
14756.0
14758.0
14771.0
14772.0
14775.0
14776.0
14776.0
14779.0
14780.0
14786.0
14789.0
14792.0
14794.0
14798.0
14799.0
14803.0
14806.0
14806.0
14816.0
14821.0
14828.0
14840.0
14844.0
14847.0
14848.0
14850.0
14856.0
14856.0
14858.0
14858.0
14862.0
14862.0
14864.0
14868.0
14872.0
14873.0
14873.0
14875.0
14884.0
14885.0
14898.0
14901.0
14904.0
14906.0
14907.0
14909.0
14909.0
14914.0
14916.0
14919.0
14924.0
14927.0
14931.0
14934.0
14938.0
14940.0
14940.0
14942.0
14944.0
14948.0
14948.0
14951.0
14960.0
14962.0
14964.0
14964.0
14964.0
14964.0
14965.0
14965.0
14978.0
14979.0
14984.0
14985.0
14986.0
14988.0
14997.0
14998.0
15003.0
15010.0
15015.0
15017.0
15023.0
15024.0
15024.0
15024.0
15026.0
15030.0
15031.0
15039.0
15040.0
15043.0
15045.0
15055.0
15057.0
15060.0
15061.0
15061.0
15067.0
15077.0
15081.0
15096.0
15097.0
15097.0
15098.0
15099.0
15100.0
15100.0
15101.0
15102.0
15103.0
15115.0
15116.0
15117.0
15121.0
15129.0
15130.0
15132.0
15132.0
15133.0
15133.0
15137.0
15138.0
15138.0
15141.0
15143.0
15145.0
15146.0
15157.0
15163.0
15164.0
15166.0
15167.0
15172.0
15176.0
15180.0
15184.0
15184.0
15188.0
15194.0
15196.0
15206.0
15211.0
15219.0
15220.0
15222.0
15223.0
15228.0
15229.0
15230.0
15235.0
15236.0
15237.0
15240.0
15243.0
15245.0
15246.0
15248.0
15259.0
15259.0
15262.0
15263.0
15269.0
15276.0
15276.0
15279.0
15280.0
15281.0
15282.0
15289.0
15289.0
15292.0
15297.0
15300.0
15311.0
15319.0
15323.0
15326.0
15330.0
15330.0
15333.0
15339.0
15340.0
15340.0
15341.0
15346.0
15353.0
15354.0
15355.0
15355.0
15360.0
15360.0
15363.0
15371.0
15372.0
15376.0
15376.0
15378.0
15390.0
15392.0
15396.0
15398.0
15403.0
15411.0
15411.0
15414.0
15419.0
15429.0
15444.0
15446.0
15450.0
15453.0
15453.0
15459.0
15460.0
15461.0
15462.0
15468.0
15470.0
15476.0
15496.0
15497.0
15503.0
15505.0
15505.0
15508.0
15509.0
15514.0
15518.0
15523.0
15525.0
15525.0
15529.0
15530.0
15534.0
15535.0
15538.0
15542.0
15542.0
15543.0
15548.0
15548.0
15554.0
15555.0
15555.0
15566.0
15567.0
15568.0
15573.0
15573.0
15585.0
15587.0
15588.0
15588.0
15589.0
15594.0
15594.0
15598.0
15608.0
15610.0
15614.0
15616.0
15616.0
15620.0
15626.0
15627.0
15636.0
15640.0
15640.0
15644.0
15647.0
15650.0
15651.0
15651.0
15653.0
15667.0
15668.0
15679.0
15680.0
15681.0
15685.0
15692.0
15696.0
15701.0
15707.0
15712.0
15715.0
15722.0
15724.0
15727.0
15727.0
15730.0
15736.0
15750.0
15753.0
15753.0
15758.0
15762.0
15766.0
15770.0
15772.0
15772.0
15780.0
15783.0
15783.0
15791.0
15796.0
15800.0
15806.0
15809.0
15811.0
15811.0
15814.0
15816.0
15817.0
15820.0
15820.0
15820.0
15830.0
15832.0
15832.0
15847.0
15850.0
15860.0
15863.0
15865.0
15867.0
15867.0
15870.0
15871.0
15872.0
15872.0
15877.0
15881.0
15881.0
15883.0
15886.0
15888.0
15889.0
15890.0
15895.0
15902.0
15906.0
15907.0
15919.0
15922.0
15923.0
15924.0
15928.0
15934.0
15935.0
15938.0
15946.0
15955.0
15957.0
15960.0
15963.0
15972.0
15972.0
15981.0
15982.0
15984.0
15987.0
15989.0
15990.0
15993.0
16000.0
16003.0
16007.0
16009.0
16011.0
16016.0
16020.0
16028.0
16029.0
16029.0
16029.0
16031.0
16035.0
16036.0
16047.0
16050.0
16055.0
16057.0
16057.0
16063.0
16071.0
16071.0
16077.0
16077.0
16077.0
16083.0
16084.0
16086.0
16098.0
16100.0
16109.0
16110.0
16114.0
16118.0
16124.0
16128.0
16128.0
16128.0
16129.0
16133.0
16137.0
16138.0
16139.0
16145.0
16146.0
16148.0
16158.0
16158.0
16163.0
16163.0
16167.0
16171.0
16175.0
16177.0
16178.0
16178.0
16179.0
16189.0
16191.0
16201.0
16205.0
16206.0
16221.0
16228.0
16228.0
16232.0
16238.0
16240.0
16254.0
16262.0
16263.0
16267.0
16268.0
16276.0
16285.0
16291.0
16293.0
16294.0
16306.0
16313.0
16313.0
16320.0
16320.0
16322.0
16333.0
16336.0
16336.0
16338.0
16350.0
16358.0
16361.0
16363.0
16364.0
16364.0
16375.0
16377.0
16383.0
16386.0
16390.0
16392.0
16399.0
16400.0
16406.0
16411.0
16412.0
16416.0
16418.0
16423.0
16438.0
16446.0
16446.0
16455.0
16460.0
16462.0
16464.0
16475.0
16476.0
16476.0
16476.0
16478.0
16479.0
16480.0
16481.0
16506.0
16510.0
16511.0
16517.0
16517.0
16518.0
16521.0
16535.0
16535.0
16535.0
16538.0
16539.0
16540.0
16547.0
16551.0
16555.0
16564.0
16567.0
16572.0
16573.0
16573.0
16578.0
16581.0
16585.0
16593.0
16598.0
16599.0
16600.0
16600.0
16606.0
16621.0
16624.0
16626.0
16626.0
16628.0
16629.0
16646.0
16648.0
16649.0
16660.0
16662.0
16663.0
16663.0
16665.0
16665.0
16675.0
16691.0
16698.0
16712.0
16714.0
16721.0
16725.0
16726.0
16727.0
16727.0
16734.0
16745.0
16746.0
16751.0
16759.0
16759.0
16759.0
16761.0
16770.0
16774.0
16775.0
16781.0
16783.0
16783.0
16791.0
16792.0
16798.0
16833.0
16834.0
16836.0
16837.0
16841.0
16842.0
16845.0
16848.0
16856.0
16860.0
16863.0
16878.0
16878.0
16879.0
16883.0
16894.0
16902.0
16911.0
16915.0
16918.0
16921.0
16936.0
16942.0
16943.0
16946.0
16950.0
16962.0
16967.0
16969.0
16976.0
16981.0
16982.0
16982.0
16988.0
16992.0
16993.0
17003.0
17005.0
17020.0
17020.0
17020.0
17020.0
17021.0
17022.0
17024.0
17025.0
17026.0
17028.0
17031.0
17036.0
17036.0
17036.0
17037.0
17038.0
17038.0
17048.0
17048.0
17049.0
17054.0
17057.0
17063.0
17063.0
17063.0
17066.0
17079.0
17084.0
17086.0
17087.0
17096.0
17100.0
17106.0
17107.0
17107.0
17124.0
17129.0
17140.0
17144.0
17154.0
17154.0
17165.0
17174.0
17176.0
17176.0
17177.0
17182.0
17183.0
17187.0
17187.0
17188.0
17196.0
17211.0
17211.0
17213.0
17214.0
17216.0
17225.0
17227.0
17228.0
17245.0
17252.0
17252.0
17266.0
17270.0
17272.0
17275.0
17276.0
17282.0
17284.0
17290.0
17292.0
17304.0
17312.0
17312.0
17315.0
17327.0
17334.0
17338.0
17347.0
17354.0
17357.0
17371.0
17377.0
17381.0
17382.0
17383.0
17391.0
17411.0
17413.0
17417.0
17424.0
17424.0
17437.0
17437.0
17442.0
17442.0
17446.0
17450.0
17454.0
17473.0
17480.0
17484.0
17488.0
17497.0
17497.0
17499.0
17505.0
17518.0
17519.0
17520.0
17521.0
17525.0
17525.0
17526.0
17526.0
17530.0
17532.0
17535.0
17543.0
17551.0
17561.0
17565.0
17572.0
17575.0
17577.0
17584.0
17585.0
17589.0
17594.0
17604.0
17619.0
17621.0
17624.0
17633.0
17647.0
17648.0
17656.0
17656.0
17661.0
17662.0
17663.0
17675.0
17677.0
17689.0
17691.0
17697.0
17699.0
17700.0
17708.0
17715.0
17717.0
17720.0
17720.0
17722.0
17727.0
17755.0
17765.0
17768.0
17771.0
17774.0
17780.0
17791.0
17800.0
17818.0
17836.0
17841.0
17844.0
17858.0
17861.0
17870.0
17872.0
17878.0
17880.0
17882.0
17885.0
17902.0
17904.0
17922.0
17925.0
17939.0
17942.0
17942.0
17947.0
17954.0
17954.0
17960.0
17962.0
17962.0
17963.0
17970.0
17988.0
17999.0
18000.0
18002.0
18009.0
18016.0
18017.0
18024.0
18029.0
18034.0
18046.0
18062.0
18073.0
18075.0
18083.0
18092.0
18099.0
18102.0
18104.0
18105.0
18114.0
18116.0
18121.0
18125.0
18127.0
18152.0
18154.0
18171.0
18182.0
18184.0
18185.0
18186.0
18188.0
18190.0
18191.0
18192.0
18199.0
18212.0
18214.0
18227.0
18243.0
18246.0
18251.0
18259.0
18271.0
18278.0
18279.0
18293.0
18302.0
18318.0
18321.0
18332.0
18343.0
18343.0
18344.0
18345.0
18369.0
18370.0
18386.0
18387.0
18388.0
18392.0
18394.0
18411.0
18428.0
18430.0
18430.0
18431.0
18449.0
18453.0
18454.0
18457.0
18462.0
18462.0
18463.0
18466.0
18475.0
18487.0
18492.0
18494.0
18498.0
18501.0
18503.0
18511.0
18518.0
18520.0
18525.0
18527.0
18528.0
18534.0
18535.0
18538.0
18540.0
18546.0
18549.0
18583.0
18593.0
18596.0
18615.0
18619.0
18627.0
18632.0
18638.0
18677.0
18701.0
18712.0
18720.0
18735.0
18740.0
18746.0
18750.0
18762.0
18769.0
18773.0
18776.0
18783.0
18783.0
18788.0
18798.0
18800.0
18811.0
18843.0
18853.0
18872.0
18878.0
18905.0
18907.0
18916.0
18923.0
18924.0
18938.0
18967.0
18974.0
18996.0
19008.0
19009.0
19010.0
19039.0
19039.0
19045.0
19051.0
19053.0
19074.0
19083.0
19084.0
19084.0
19085.0
19094.0
19096.0
19097.0
19115.0
19124.0
19132.0
19135.0
19152.0
19156.0
19168.0
19169.0
19176.0
19181.0
19199.0
19201.0
19208.0
19209.0
19213.0
19231.0
19252.0
19252.0
19271.0
19277.0
19287.0
19288.0
19289.0
19293.0
19300.0
19306.0
19329.0
19330.0
19337.0
19338.0
19340.0
19344.0
19356.0
19368.0
19369.0
19376.0
19377.0
19380.0
19381.0
19384.0
19388.0
19408.0
19410.0
19415.0
19428.0
19450.0
19453.0
19455.0
19475.0
19488.0
19493.0
19496.0
19497.0
19508.0
19518.0
19536.0
19548.0
19553.0
19554.0
19556.0
19579.0
19588.0
19588.0
19602.0
19603.0
19605.0
19616.0
19629.0
19633.0
19636.0
19642.0
19654.0
19689.0
19689.0
19698.0
19710.0
19710.0
19715.0
19731.0
19746.0
19772.0
19775.0
19778.0
19791.0
19802.0
19803.0
19841.0
19843.0
19844.0
19852.0
19873.0
19874.0
19881.0
19892.0
19923.0
19938.0
19988.0
19991.0
19993.0
19996.0
19997.0
20013.0
20016.0
20018.0
20030.0
20042.0
20071.0
20072.0
20085.0
20089.0
20103.0
20106.0
20114.0
20129.0
20141.0
20151.0
20164.0
20166.0
20177.0
20183.0
20192.0
20224.0
20243.0
20264.0
20275.0
20290.0
20298.0
20298.0
20300.0
20308.0
20310.0
20319.0
20322.0
20322.0
20337.0
20345.0
20379.0
20402.0
20404.0
20416.0
20432.0
20442.0
20461.0
20463.0
20469.0
20470.0
20490.0
20492.0
20494.0
20498.0
20509.0
20518.0
20525.0
20525.0
20541.0
20553.0
20557.0
20560.0
20566.0
20575.0
20604.0
20608.0
20614.0
20616.0
20628.0
20677.0
20677.0
20684.0
20742.0
20744.0
20747.0
20772.0
20774.0
20774.0
20793.0
20800.0
20804.0
20805.0
20841.0
20842.0
20855.0
20864.0
20872.0
20877.0
20881.0
20882.0
20889.0
20892.0
20893.0
20908.0
20917.0
20922.0
20965.0
20974.0
20975.0
20977.0
20997.0
21006.0
21007.0
21008.0
21014.0
21039.0
21041.0
21044.0
21059.0
21072.0
21094.0
21119.0
21122.0
21133.0
21141.0
21157.0
21157.0
21159.0
21161.0
21178.0
21200.0
21213.0
21291.0
21293.0
21382.0
21385.0
21406.0
21414.0
21424.0
21424.0
21430.0
21438.0
21446.0
21449.0
21453.0
21488.0
21494.0
21495.0
21495.0
21504.0
21514.0
21520.0
21570.0
21573.0
21573.0
21576.0
21625.0
21627.0
21629.0
21642.0
21644.0
21650.0
21660.0
21699.0
21719.0
21730.0
21742.0
21764.0
21775.0
21778.0
21794.0
21836.0
21908.0
21913.0
21921.0
21932.0
21944.0
21972.0
22023.0
22025.0
22026.0
22044.0
22058.0
22063.0
22067.0
22074.0
22111.0
22113.0
22114.0
22160.0
22171.0
22184.0
22196.0
22218.0
22238.0
22242.0
22250.0
22266.0
22358.0
22360.0
22415.0
22428.0
22446.0
22454.0
22481.0
22494.0
22504.0
22515.0
22524.0
22554.0
22563.0
22570.0
22615.0
22654.0
22662.0
22679.0
22684.0
22706.0
22710.0
22763.0
22789.0
22798.0
22804.0
22816.0
22824.0
22840.0
22903.0
22909.0
22918.0
22938.0
22959.0
22984.0
23040.0
23062.0
23114.0
23116.0
23118.0
23120.0
23129.0
23164.0
23191.0
23212.0
23228.0
23238.0
23257.0
23266.0
23286.0
23308.0
23320.0
23333.0
23342.0
23343.0
23349.0
23383.0
23408.0
23418.0
23475.0
23479.0
23501.0
23549.0
23620.0
23664.0
23674.0
23698.0
23705.0
23723.0
23809.0
23823.0
23832.0
23839.0
23888.0
23897.0
23956.0
23975.0
24010.0
24034.0
24038.0
24040.0
24067.0
24093.0
24102.0
24124.0
24165.0
24167.0
24168.0
24174.0
24200.0
24262.0
24262.0
24264.0
24277.0
24353.0
24356.0
24361.0
24436.0
24446.0
24478.0
24478.0
24487.0
24502.0
24514.0
24516.0
24602.0
24615.0
24636.0
24641.0
24788.0
24824.0
24826.0
24840.0
24886.0
24899.0
24901.0
24913.0
24930.0
24939.0
24954.0
24975.0
25013.0
25017.0
25065.0
25078.0
25134.0
25144.0
25223.0
25251.0
25349.0
25380.0
25413.0
25464.0
25483.0
25502.0
25540.0
25559.0
25696.0
25723.0
25752.0
25764.0
25768.0
25781.0
25899.0
25912.0
25933.0
25967.0
26008.0
26015.0
26133.0
26154.0
26232.0
26261.0
26305.0
26310.0
26364.0
26395.0
26445.0
26482.0
26503.0
26528.0
26624.0
26642.0
26688.0
26694.0
26742.0
26818.0
26823.0
26851.0
26881.0
26914.0
26922.0
26927.0
26994.0
27075.0
27149.0
27213.0
27240.0
27402.0
27414.0
27449.0
27464.0
27482.0
27505.0
27525.0
27530.0
27540.0
27591.0
27600.0
27658.0
27739.0
27751.0
27793.0
27854.0
27874.0
27879.0
27896.0
27962.0
28035.0
28037.0
28059.0
28074.0
28075.0
28111.0
28138.0
28176.0
28291.0
28344.0
28351.0
28359.0
28362.0
28424.0
28543.0
28547.0
28727.0
28806.0
28870.0
28947.0
28960.0
29012.0
29172.0
29197.0
29226.0
29230.0
29256.0
29375.0
29461.0
29522.0
29573.0
29580.0
29713.0
29833.0
29867.0
29872.0
29900.0
29911.0
29914.0
29953.0
29985.0
30014.0
30101.0
30109.0
30113.0
30137.0
30197.0
30238.0
30254.0
30407.0
30434.0
30466.0
30496.0
30499.0
30641.0
30691.0
30736.0
30743.0
30945.0
31008.0
31107.0
31140.0
31382.0
31663.0
31674.0
31690.0
31762.0
31824.0
31837.0
31864.0
32015.0
32141.0
32197.0
32201.0
32218.0
32219.0
32351.0
32357.0
32499.0
32556.0
32818.0
33103.0
33230.0
33350.0
33481.0
33522.0
33559.0
33696.0
33771.0
33866.0
33935.0
33963.0
34019.0
34095.0
34140.0
34164.0
34169.0
34844.0
34911.0
35648.0
35757.0
35866.0
35930.0
35980.0
36140.0
36244.0
36711.0
36947.0
37133.0
37184.0
37388.0
37736.0
37931.0
38132.0
38141.0
38974.0
38990.0
38993.0
39013.0
39037.0
39062.0
39342.0
39482.0
39649.0
39816.0
41286.0
41595.0
42701.0
43115.0
43719.0
44717.0
46219.0
48614.0
50316.0
51944.0
52705.0
52895.0
53108.0
53931.0
54464.0
56054.0
56552.0
56936.0
57075.0
66232.0
91540.0
102032.0
114044.0
137338.0
