#T=0 quenches for random K-SAT
#N=204800  alpha=3.98  maxIter=2000000   NSamples=1743
#av(t)	108666.05679862306
#av(log(t))	11.516102109863924
#std(log(t))	0.009328938453550895
33879.0
38603.0
38991.0
40918.0
41007.0
41715.0
42521.0
42691.0
42717.0
43238.0
43519.0
43844.0
43868.0
44106.0
44325.0
44795.0
44834.0
46096.0
46224.0
46292.0
46421.0
46554.0
46681.0
46709.0
46739.0
46862.0
47393.0
47666.0
47948.0
47950.0
48031.0
48282.0
48413.0
48603.0
48710.0
48824.0
48840.0
49299.0
49387.0
49468.0
49573.0
49656.0
49767.0
49795.0
49917.0
50007.0
50125.0
50343.0
50458.0
50518.0
50603.0
50647.0
50695.0
50803.0
50812.0
50844.0
51006.0
51155.0
51398.0
51404.0
51417.0
51466.0
51569.0
51817.0
52045.0
52158.0
52381.0
52453.0
52489.0
52910.0
53082.0
53099.0
53135.0
53236.0
53237.0
53298.0
53359.0
53698.0
53728.0
53825.0
53863.0
53879.0
53932.0
54003.0
54119.0
54160.0
54170.0
54190.0
54341.0
54405.0
54896.0
54923.0
54925.0
55021.0
55199.0
55472.0
55486.0
55493.0
55508.0
55704.0
55789.0
56126.0
56195.0
56235.0
56327.0
56427.0
56448.0
56584.0
56759.0
57231.0
57317.0
57370.0
57521.0
57637.0
57762.0
57857.0
57857.0
57898.0
57933.0
57959.0
58229.0
58231.0
58327.0
58407.0
58444.0
58449.0
58553.0
58569.0
58617.0
58625.0
58804.0
58836.0
58907.0
58933.0
58938.0
58946.0
59049.0
59265.0
59360.0
59430.0
59564.0
59575.0
59577.0
59663.0
59738.0
59740.0
59768.0
59858.0
59883.0
59894.0
59913.0
60103.0
60142.0
60309.0
60371.0
60392.0
60422.0
60429.0
60439.0
60452.0
60710.0
60790.0
60797.0
60939.0
61021.0
61029.0
61044.0
61073.0
61089.0
61159.0
61248.0
61338.0
61486.0
61747.0
61801.0
61935.0
61953.0
61954.0
61955.0
62091.0
62110.0
62227.0
62337.0
62434.0
62528.0
62699.0
62744.0
62756.0
62963.0
62985.0
63035.0
63059.0
63194.0
63291.0
63499.0
63514.0
63522.0
63974.0
64071.0
64163.0
64336.0
64343.0
64348.0
64492.0
64617.0
64617.0
64650.0
64705.0
64707.0
64779.0
64863.0
64874.0
64893.0
65000.0
65039.0
65041.0
65070.0
65071.0
65077.0
65157.0
65317.0
65334.0
65350.0
65362.0
65371.0
65545.0
65566.0
65584.0
65693.0
65759.0
65834.0
65897.0
65934.0
66055.0
66151.0
66284.0
66367.0
66397.0
66459.0
66507.0
66523.0
66634.0
66681.0
66717.0
66727.0
66784.0
66904.0
66916.0
66959.0
66967.0
66984.0
67068.0
67162.0
67179.0
67372.0
67401.0
67408.0
67415.0
67418.0
67437.0
67511.0
67520.0
67528.0
67537.0
67570.0
67591.0
67735.0
67754.0
67805.0
67837.0
67935.0
67957.0
67960.0
68038.0
68047.0
68076.0
68114.0
68217.0
68302.0
68383.0
68510.0
68577.0
68643.0
68646.0
68664.0
68693.0
68698.0
68726.0
68728.0
68776.0
68795.0
68892.0
69051.0
69186.0
69202.0
69282.0
69364.0
69401.0
69403.0
69406.0
69408.0
69439.0
69443.0
69445.0
69445.0
69559.0
69597.0
69789.0
69880.0
69899.0
69928.0
69966.0
70058.0
70170.0
70208.0
70283.0
70330.0
70447.0
70515.0
70590.0
70601.0
70653.0
70714.0
70756.0
70855.0
71080.0
71103.0
71206.0
71260.0
71265.0
71308.0
71329.0
71447.0
71518.0
71615.0
71616.0
71622.0
71715.0
71746.0
71830.0
71832.0
71847.0
71850.0
71877.0
71886.0
71958.0
72092.0
72199.0
72240.0
72383.0
72384.0
72456.0
72494.0
72496.0
72589.0
72591.0
72610.0
72647.0
72659.0
72670.0
72707.0
72748.0
72758.0
72809.0
72828.0
72850.0
72892.0
72970.0
73034.0
73096.0
73097.0
73117.0
73167.0
73284.0
73342.0
73343.0
73379.0
73427.0
73467.0
73500.0
73565.0
73643.0
73649.0
73803.0
73832.0
73867.0
73910.0
73912.0
74006.0
74059.0
74086.0
74109.0
74137.0
74158.0
74311.0
74367.0
74454.0
74485.0
74546.0
74553.0
74700.0
74755.0
74801.0
74929.0
74941.0
74978.0
75042.0
75076.0
75123.0
75164.0
75242.0
75408.0
75431.0
75488.0
75488.0
75549.0
75589.0
75680.0
75748.0
75809.0
75850.0
75853.0
75860.0
75952.0
75994.0
76281.0
76315.0
76345.0
76357.0
76449.0
76523.0
76531.0
76624.0
76672.0
76704.0
76785.0
76791.0
76805.0
76870.0
76901.0
76931.0
76957.0
76966.0
76985.0
77043.0
77054.0
77076.0
77109.0
77153.0
77289.0
77388.0
77462.0
77495.0
77509.0
77659.0
77735.0
77765.0
77776.0
77784.0
77859.0
77884.0
77903.0
78034.0
78125.0
78134.0
78199.0
78320.0
78409.0
78419.0
78468.0
78473.0
78486.0
78564.0
78735.0
78764.0
78784.0
78810.0
78865.0
78881.0
78912.0
78951.0
79098.0
79113.0
79132.0
79133.0
79194.0
79202.0
79297.0
79352.0
79364.0
79374.0
79455.0
79461.0
79464.0
79472.0
79488.0
79495.0
79602.0
79624.0
79733.0
79841.0
79848.0
79954.0
79956.0
80092.0
80160.0
80300.0
80372.0
80409.0
80426.0
80436.0
80451.0
80542.0
80543.0
80588.0
80643.0
80687.0
80699.0
80724.0
80795.0
80810.0
80820.0
80830.0
80860.0
80981.0
80994.0
81013.0
81133.0
81150.0
81197.0
81201.0
81202.0
81270.0
81293.0
81321.0
81375.0
81481.0
81540.0
81552.0
81609.0
81733.0
81785.0
81803.0
81845.0
81903.0
81999.0
82154.0
82191.0
82209.0
82237.0
82299.0
82313.0
82318.0
82411.0
82421.0
82440.0
82446.0
82597.0
82611.0
82740.0
82805.0
82895.0
82921.0
82952.0
82972.0
82978.0
83016.0
83063.0
83064.0
83117.0
83134.0
83145.0
83207.0
83259.0
83270.0
83311.0
83465.0
83504.0
83528.0
83563.0
83564.0
83671.0
83676.0
83696.0
83708.0
83773.0
83890.0
83917.0
84063.0
84117.0
84120.0
84198.0
84267.0
84280.0
84352.0
84421.0
84477.0
84574.0
84648.0
84650.0
84727.0
84755.0
84769.0
84818.0
84828.0
84875.0
84915.0
84938.0
84955.0
84976.0
85064.0
85090.0
85126.0
85135.0
85219.0
85324.0
85355.0
85510.0
85679.0
85724.0
85748.0
85833.0
85924.0
85969.0
85995.0
86002.0
86046.0
86046.0
86111.0
86116.0
86134.0
86196.0
86198.0
86285.0
86349.0
86350.0
86357.0
86431.0
86473.0
86490.0
86601.0
86603.0
86613.0
86755.0
86758.0
86762.0
86872.0
86902.0
87014.0
87085.0
87221.0
87389.0
87400.0
87417.0
87502.0
87620.0
87637.0
87693.0
87793.0
87863.0
87898.0
87905.0
87930.0
87991.0
88048.0
88053.0
88155.0
88156.0
88210.0
88225.0
88225.0
88445.0
88452.0
88467.0
88514.0
88601.0
88630.0
88656.0
88660.0
88708.0
88724.0
88736.0
88765.0
88802.0
88892.0
88943.0
89020.0
89026.0
89065.0
89065.0
89104.0
89169.0
89198.0
89215.0
89238.0
89258.0
89293.0
89371.0
89381.0
89444.0
89609.0
89646.0
89654.0
89693.0
89695.0
89695.0
89703.0
89726.0
89740.0
89809.0
89822.0
89879.0
89911.0
90056.0
90145.0
90171.0
90241.0
90242.0
90244.0
90271.0
90311.0
90397.0
90430.0
90451.0
90466.0
90566.0
90573.0
90591.0
90628.0
90671.0
90683.0
90806.0
90836.0
90838.0
90843.0
90850.0
90994.0
91090.0
91116.0
91203.0
91219.0
91354.0
91359.0
91375.0
91445.0
91478.0
91489.0
91500.0
91586.0
91675.0
91711.0
91743.0
91762.0
91782.0
91807.0
91818.0
91930.0
91955.0
91979.0
91979.0
92071.0
92074.0
92109.0
92187.0
92252.0
92313.0
92338.0
92386.0
92446.0
92451.0
92597.0
92658.0
92690.0
92737.0
92832.0
92844.0
92921.0
92950.0
92953.0
93022.0
93031.0
93056.0
93103.0
93182.0
93213.0
93246.0
93272.0
93291.0
93305.0
93311.0
93461.0
93479.0
93600.0
93608.0
93616.0
93646.0
93767.0
93862.0
93956.0
93957.0
94021.0
94065.0
94192.0
94274.0
94282.0
94308.0
94308.0
94334.0
94340.0
94361.0
94363.0
94544.0
94562.0
94579.0
94580.0
94744.0
94801.0
94809.0
94811.0
94903.0
94953.0
95036.0
95047.0
95061.0
95072.0
95140.0
95158.0
95204.0
95206.0
95254.0
95461.0
95516.0
95545.0
95636.0
95702.0
95725.0
95744.0
95791.0
95854.0
95938.0
95946.0
95985.0
96072.0
96256.0
96287.0
96336.0
96406.0
96445.0
96467.0
96485.0
96496.0
96575.0
96607.0
96660.0
96688.0
96868.0
96940.0
96958.0
97000.0
97116.0
97231.0
97238.0
97252.0
97292.0
97381.0
97646.0
97665.0
97666.0
97708.0
97744.0
97796.0
97817.0
97841.0
97954.0
98000.0
98102.0
98131.0
98280.0
98318.0
98384.0
98478.0
98493.0
98496.0
98496.0
98530.0
98579.0
98616.0
98636.0
98645.0
98701.0
98830.0
98867.0
98906.0
98938.0
99024.0
99059.0
99093.0
99117.0
99120.0
99121.0
99147.0
99156.0
99240.0
99369.0
99469.0
99504.0
99529.0
99691.0
99704.0
99765.0
99828.0
99869.0
99968.0
100029.0
100051.0
100127.0
100165.0
100191.0
100197.0
100242.0
100358.0
100504.0
100630.0
100710.0
100821.0
100952.0
100983.0
101019.0
101247.0
101261.0
101305.0
101335.0
101368.0
101457.0
101539.0
101552.0
101587.0
101604.0
101611.0
101649.0
101691.0
101719.0
101768.0
101780.0
101807.0
101850.0
101855.0
101883.0
101972.0
102078.0
102099.0
102145.0
102170.0
102175.0
102262.0
102380.0
102384.0
102569.0
102636.0
102693.0
102745.0
102775.0
102815.0
102848.0
102880.0
102886.0
102897.0
102989.0
103009.0
103031.0
103064.0
103077.0
103105.0
103236.0
103266.0
103316.0
103319.0
103415.0
103495.0
103506.0
103511.0
103552.0
103644.0
103648.0
103671.0
103871.0
103899.0
103901.0
103965.0
104003.0
104016.0
104186.0
104451.0
104655.0
104765.0
104785.0
104836.0
104910.0
104955.0
104998.0
105080.0
105100.0
105120.0
105181.0
105211.0
105228.0
105346.0
105396.0
105410.0
105453.0
105721.0
105727.0
105734.0
105740.0
105756.0
105760.0
105810.0
105841.0
105972.0
106200.0
106212.0
106247.0
106251.0
106288.0
106358.0
106358.0
106433.0
106556.0
106708.0
106710.0
106753.0
106755.0
106767.0
106775.0
106783.0
106805.0
106808.0
106817.0
106905.0
107275.0
107282.0
107285.0
107307.0
107353.0
107402.0
107436.0
107568.0
107593.0
107597.0
107599.0
107624.0
107638.0
107735.0
107823.0
107902.0
107995.0
108018.0
108116.0
108148.0
108185.0
108231.0
108266.0
108271.0
108603.0
108609.0
108660.0
108675.0
108749.0
108975.0
109035.0
109037.0
109170.0
109288.0
109319.0
109410.0
109539.0
109806.0
109868.0
109870.0
109910.0
110050.0
110105.0
110108.0
110196.0
110476.0
110482.0
110568.0
110654.0
110744.0
110770.0
110913.0
111140.0
111241.0
111341.0
111366.0
111384.0
111463.0
111487.0
111533.0
111609.0
111735.0
111882.0
111947.0
111976.0
111999.0
112214.0
112215.0
112252.0
112365.0
112392.0
112503.0
112597.0
112603.0
112650.0
112650.0
112669.0
112773.0
112850.0
112972.0
113008.0
113049.0
113050.0
113062.0
113064.0
113069.0
113102.0
113178.0
113399.0
113415.0
113689.0
113701.0
113742.0
113763.0
113807.0
113858.0
113961.0
113970.0
114001.0
114083.0
114098.0
114147.0
114263.0
114485.0
114581.0
114621.0
114650.0
114658.0
114709.0
114709.0
114790.0
114797.0
114800.0
114884.0
115042.0
115048.0
115088.0
115121.0
115152.0
115275.0
115279.0
115504.0
115512.0
115584.0
115632.0
115685.0
115762.0
115800.0
115806.0
115854.0
115887.0
115940.0
116104.0
116162.0
116339.0
116434.0
116469.0
116595.0
116663.0
116679.0
116775.0
116800.0
116826.0
116845.0
116852.0
116872.0
117151.0
117224.0
117368.0
117492.0
117602.0
117628.0
117683.0
117771.0
117918.0
117986.0
117986.0
118035.0
118069.0
118230.0
118431.0
118459.0
118606.0
118729.0
118735.0
118981.0
119079.0
119244.0
119329.0
119662.0
119681.0
119686.0
119715.0
119716.0
119731.0
119774.0
119887.0
119925.0
120233.0
120252.0
120430.0
120557.0
120634.0
121044.0
121177.0
121192.0
121198.0
121239.0
121281.0
121379.0
121520.0
121532.0
121541.0
121543.0
121594.0
121776.0
121784.0
121869.0
121977.0
122007.0
122050.0
122089.0
122125.0
122141.0
122300.0
122350.0
122390.0
122587.0
122743.0
122745.0
122761.0
122786.0
122907.0
122925.0
122988.0
123112.0
123182.0
123296.0
123318.0
123367.0
123420.0
123471.0
123555.0
124012.0
124024.0
124065.0
124178.0
124201.0
124207.0
124265.0
124408.0
124429.0
124437.0
124444.0
124466.0
124680.0
124792.0
124876.0
124945.0
124961.0
125182.0
125251.0
125537.0
125631.0
125769.0
125842.0
126050.0
126140.0
126277.0
126385.0
126429.0
126449.0
126713.0
126810.0
126953.0
127158.0
127174.0
127181.0
127244.0
127367.0
127390.0
127716.0
127886.0
128234.0
128379.0
128436.0
128732.0
128748.0
128848.0
129017.0
129049.0
129057.0
129143.0
129282.0
129336.0
129460.0
129469.0
129570.0
129667.0
129729.0
129783.0
129816.0
129833.0
129871.0
130015.0
130155.0
130186.0
130210.0
130218.0
130284.0
130350.0
130558.0
130792.0
130853.0
130883.0
131006.0
131113.0
131155.0
131232.0
131303.0
131410.0
131755.0
131863.0
132144.0
132176.0
132537.0
132636.0
132674.0
132701.0
132803.0
132819.0
132952.0
132979.0
133053.0
133130.0
133293.0
133310.0
133383.0
133389.0
133491.0
133799.0
133851.0
133901.0
133973.0
134130.0
134251.0
134287.0
134860.0
134910.0
134929.0
135097.0
135123.0
135300.0
135393.0
135652.0
135865.0
135917.0
136085.0
136154.0
136249.0
136352.0
136353.0
136404.0
136545.0
136554.0
136597.0
136827.0
136950.0
137311.0
137543.0
137614.0
137805.0
137867.0
137991.0
138003.0
138027.0
138107.0
138354.0
138436.0
138563.0
138575.0
138649.0
138790.0
138887.0
139235.0
139653.0
139797.0
139804.0
139946.0
140012.0
140084.0
140344.0
140344.0
140359.0
140381.0
140418.0
140467.0
140566.0
140716.0
141092.0
141191.0
141656.0
141922.0
141945.0
141957.0
142233.0
142265.0
142312.0
142399.0
142428.0
142458.0
142458.0
142515.0
142552.0
142743.0
142905.0
143115.0
143746.0
143813.0
143894.0
143940.0
144071.0
144172.0
144263.0
144324.0
144559.0
144565.0
144639.0
144920.0
145054.0
145133.0
145216.0
145399.0
145467.0
145542.0
145652.0
145680.0
145868.0
145900.0
146194.0
146283.0
146298.0
146471.0
146527.0
146616.0
146740.0
146797.0
146818.0
146845.0
147022.0
147185.0
147279.0
147709.0
147714.0
147746.0
147785.0
147829.0
147916.0
147960.0
148219.0
148373.0
148833.0
148883.0
149069.0
149098.0
149104.0
149152.0
149521.0
149617.0
149811.0
149815.0
149826.0
149935.0
150164.0
150214.0
150299.0
151289.0
151485.0
151593.0
151852.0
152018.0
152164.0
152356.0
152551.0
152569.0
152912.0
152960.0
153107.0
153387.0
153609.0
154009.0
154095.0
154138.0
154201.0
154269.0
154528.0
155265.0
155428.0
155602.0
155892.0
156023.0
156141.0
156421.0
156481.0
156652.0
156664.0
156977.0
156993.0
157192.0
157252.0
157985.0
158427.0
158653.0
158938.0
159495.0
159503.0
159837.0
159945.0
160038.0
160511.0
160688.0
160763.0
160933.0
160938.0
161064.0
161113.0
161223.0
161304.0
162092.0
162122.0
162128.0
162849.0
163577.0
163701.0
163716.0
163907.0
163925.0
164007.0
164047.0
164103.0
164164.0
164287.0
164351.0
164404.0
164486.0
165035.0
165538.0
167002.0
167455.0
167647.0
167685.0
167903.0
167969.0
168171.0
168481.0
168803.0
169215.0
169462.0
169779.0
169849.0
169852.0
170320.0
170547.0
171214.0
171273.0
171276.0
171795.0
171981.0
172104.0
172328.0
172330.0
172516.0
172574.0
173417.0
173646.0
173685.0
173940.0
174020.0
174310.0
174398.0
174623.0
174705.0
175431.0
175659.0
176313.0
176441.0
177723.0
178374.0
178627.0
179294.0
179400.0
180110.0
180374.0
180394.0
180999.0
181268.0
181379.0
182382.0
182835.0
183139.0
183663.0
183757.0
184244.0
184249.0
184492.0
184828.0
185692.0
185802.0
185981.0
186051.0
186289.0
186375.0
187005.0
187204.0
187356.0
188323.0
188399.0
188446.0
189202.0
189283.0
189380.0
189780.0
190210.0
190324.0
191637.0
191814.0
192365.0
192816.0
192867.0
192944.0
193009.0
193446.0
194326.0
194529.0
194659.0
194724.0
194778.0
195452.0
195656.0
196338.0
197203.0
198229.0
199147.0
199385.0
200079.0
200218.0
200419.0
200849.0
201175.0
202160.0
202360.0
202748.0
203714.0
205153.0
205514.0
205938.0
206142.0
206438.0
206834.0
208257.0
208329.0
209336.0
210870.0
212079.0
212459.0
213224.0
213289.0
215217.0
216013.0
216144.0
216700.0
219892.0
220776.0
220783.0
221085.0
222404.0
222439.0
225029.0
225245.0
225807.0
226736.0
228562.0
231173.0
231878.0
234593.0
235449.0
236567.0
237300.0
238628.0
245359.0
245572.0
251414.0
253641.0
253647.0
267569.0
269274.0
271495.0
275910.0
278626.0
279696.0
283009.0
283291.0
283535.0
287605.0
289160.0
289445.0
293798.0
294202.0
297250.0
297255.0
305713.0
307335.0
309181.0
313662.0
321736.0
324901.0
335439.0
352606.0
360860.0
363031.0
375242.0
386657.0
390487.0
419084.0
